## SPECTRUM TYPE:
Spectroscopic

## DATE:
11/9/2011

## COMMENTS:

## NUMBER OF SPECTRUM:
5

## ELLIPSOMETRIC CONFIGURATION:
0.00 ø :Modulator
+45.00 øAnalyser

## UNIT:
eV


# SPECTRUM:
1

# START TIME:
12:22:40

# END TIME:
12:34:41

# THETA ANGLE:
0.00 ø

# INCIDENCE ANGLE:
55.00 ø

# ACCUMULATION NUMBER:
1

# ELLIPSOMETRIC CONFIGURATION:
0.00 ø :Modulator
+45.00 øAnalyser

# INTEGRATION TIME:
500 ms

# FIRST POINT:
0.6000 eV

# LAST POINT:
6.5000 eV

# INCREMENT:
0.0250 eV

# NUMBER OF POINTS:
237

# DATA:
eV Hv S0 Psi Delta Is Ic 
0.600 3898.9 42.855 23.481 212.926 -0.39729 -0.61350 
0.625 3898.9 60.361 24.220 212.562 -0.40273 -0.63065 
0.650 3898.9 61.878 25.030 211.368 -0.39911 -0.65466 
0.675 3898.9 61.583 25.710 209.804 -0.38855 -0.67835 
0.700 3898.9 78.919 25.978 207.072 -0.35841 -0.70125 
0.725 3302.0 77.223 26.355 204.098 -0.32483 -0.72625 
0.750 3200.4 78.621 26.624 200.786 -0.28434 -0.74908 
0.775 2501.9 78.061 26.831 197.226 -0.23855 -0.76940 
0.800 1403.4 79.343 26.987 193.396 -0.18738 -0.78674 
0.825 1701.8 63.577 27.165 189.407 -0.13279 -0.80146 
0.850 1701.8 64.244 27.308 185.360 -0.07616 -0.81172 
0.875 1200.2 67.796 27.313 181.324 -0.01884 -0.81516 
0.900 1397.0 71.026 27.333 177.102 0.04124 -0.81476 
0.925 1397.0 60.010 27.310 172.974 0.09973 -0.80921 
0.950 1498.6 67.817 27.266 168.934 0.15632 -0.79929 
0.975 1098.6 65.112 27.133 164.784 0.21304 -0.78327 
1.000 1397.0 63.400 26.986 160.856 0.26521 -0.76400 
1.025 1397.0 69.864 26.753 156.955 0.31470 -0.73977 
1.050 997.0 80.030 26.616 153.270 0.36031 -0.71547 
1.075 1397.0 71.824 26.361 149.786 0.40043 -0.68762 
1.100 1397.0 78.638 26.054 146.112 0.44002 -0.65510 
1.125 1397.0 78.373 25.674 142.240 0.47822 -0.61742 
1.150 1295.4 71.724 25.175 137.383 0.52133 -0.56660 
1.175 1295.4 61.577 24.653 128.909 0.59000 -0.47623 
1.200 1695.5 67.509 25.127 112.783 0.70890 -0.29775 
1.225 1397.0 72.468 28.091 94.530 0.82822 -0.06562 
1.250 997.0 71.076 32.198 77.448 0.88025 0.19599 
1.275 1797.1 60.689 37.099 58.082 0.81672 0.50873 
1.300 2298.7 61.464 40.278 30.060 0.49411 0.85378 
1.325 3200.4 60.893 39.205 357.321 -0.04579 0.97854 
1.350 1898.7 77.375 41.412 318.481 -0.65767 0.74288 
1.375 2298.7 63.984 37.383 294.256 -0.87968 0.39638 
1.400 1898.7 77.988 32.992 273.006 -0.91218 0.04790 
1.425 4000.5 34.915 29.856 260.289 -0.85113 -0.14566 
1.450 4000.5 19.494 27.961 248.569 -0.77100 -0.30264 
1.475 780.0 58.039 25.940 237.307 -0.66209 -0.42494 
1.500 596.0 68.808 26.351 230.724 -0.61580 -0.50359 
1.525 697.0 70.555 25.948 223.175 -0.53842 -0.57386 
1.550 623.0 66.789 25.810 216.908 -0.47076 -0.62682 
1.575 660.0 64.905 25.832 210.741 -0.40095 -0.67418 
1.600 660.0 73.205 25.924 204.729 -0.32896 -0.71426 
1.625 594.0 74.702 25.989 199.338 -0.26087 -0.74333 
1.650 594.0 59.788 26.024 193.715 -0.18695 -0.76604 
1.675 594.0 75.408 26.061 188.506 -0.11675 -0.78063 
1.700 573.0 68.843 26.037 183.136 -0.04316 -0.78763 
1.725 561.0 68.497 26.025 177.934 0.02843 -0.78804 
1.750 551.0 70.814 25.929 172.696 0.09999 -0.78010 
1.775 541.0 70.918 25.708 167.535 0.16872 -0.76326 
1.800 521.0 69.565 25.466 162.161 0.23784 -0.73908 
1.825 521.0 75.606 25.177 156.754 0.30391 -0.70750 
1.850 510.0 70.419 24.820 151.211 0.36696 -0.66781 
1.875 510.0 75.412 24.487 145.567 0.42658 -0.62222 
1.900 498.0 67.612 24.070 139.245 0.48621 -0.56417 
1.925 498.0 70.716 23.569 132.827 0.53759 -0.49829 
1.950 498.0 71.604 23.118 125.494 0.58800 -0.41932 
1.975 498.0 71.308 22.686 117.219 0.63286 -0.32552 
2.000 498.0 67.684 22.317 107.546 0.66989 -0.21181 
2.025 498.0 59.842 21.864 95.401 0.68817 -0.06506 
2.050 519.0 68.169 21.421 79.999 0.66964 0.11809 
2.075 519.0 67.313 20.773 59.898 0.57377 0.33263 
2.100 519.0 61.804 19.783 34.098 0.35709 0.52746 
2.125 519.0 59.518 19.006 3.703 0.03978 0.61453 
2.150 519.0 63.221 18.169 331.367 -0.28395 0.52010 
2.175 519.0 72.783 17.712 301.232 -0.49563 0.30054 
2.200 504.0 69.592 17.772 277.681 -0.57610 0.07770 
2.225 489.0 69.427 18.055 258.713 -0.57795 -0.11535 
2.250 476.0 69.894 18.455 244.124 -0.54035 -0.26210 
2.275 464.0 70.008 18.886 232.811 -0.48796 -0.37024 
2.300 456.0 71.781 19.328 223.083 -0.42666 -0.45620 
2.325 445.0 69.819 19.712 214.774 -0.36221 -0.52165 
2.350 445.0 78.113 20.085 207.939 -0.30223 -0.56988 
2.375 432.0 69.628 20.346 201.815 -0.24230 -0.60531 
2.400 432.0 77.475 20.560 195.969 -0.18093 -0.63225 
2.425 419.0 68.232 20.695 190.487 -0.12034 -0.65014 
2.450 410.0 69.646 20.773 185.592 -0.06462 -0.66007 
2.475 410.0 76.369 20.727 180.957 -0.01106 -0.66193 
2.500 438.0 67.518 20.589 176.302 0.04247 -0.65703 
2.525 438.0 72.842 20.377 171.852 0.09252 -0.64622 
2.550 438.0 70.740 20.107 167.498 0.13976 -0.63032 
2.575 438.0 79.915 19.744 163.438 0.18127 -0.60953 
2.600 438.0 72.496 19.286 159.266 0.22074 -0.58312 
2.625 424.0 68.961 18.735 155.197 0.25520 -0.55223 
2.650 424.0 75.049 18.067 151.267 0.28347 -0.51705 
2.675 424.0 64.035 17.355 147.481 0.30611 -0.48016 
2.700 434.0 68.949 16.438 143.562 0.32242 -0.43671 
2.725 434.0 62.930 15.356 139.599 0.33102 -0.38894 
2.750 434.0 64.972 14.166 136.023 0.32954 -0.34152 
2.775 447.0 68.744 12.867 132.999 0.31756 -0.29611 
2.800 447.0 65.238 11.471 130.832 0.29494 -0.25487 
2.825 447.0 63.512 9.894 129.871 0.25983 -0.21703 
2.850 447.0 59.529 8.279 131.440 0.21364 -0.18861 
2.875 458.0 68.445 6.851 137.184 0.16099 -0.17376 
2.900 458.0 66.833 5.923 147.798 0.10940 -0.17371 
2.925 458.0 65.874 5.574 161.726 0.06062 -0.18358 
2.950 458.0 68.357 6.042 175.980 0.01468 -0.20883 
2.975 458.0 66.663 6.914 184.771 -0.01988 -0.23819 
3.000 458.0 67.352 8.126 189.145 -0.04448 -0.27630 
3.025 458.0 67.310 9.178 190.580 -0.05782 -0.30957 
3.050 458.0 67.403 10.217 190.207 -0.06187 -0.34361 
3.075 458.0 66.824 11.124 188.985 -0.05913 -0.37398 
3.100 442.0 69.302 12.006 187.063 -0.05003 -0.40385 
3.125 442.0 70.986 12.706 184.893 -0.03660 -0.42757 
3.150 442.0 71.021 13.314 182.551 -0.01995 -0.44775 
3.175 442.0 69.327 13.820 180.067 -0.00054 -0.46393 
3.200 442.0 68.720 14.207 177.711 0.01900 -0.47546 
3.225 442.0 67.628 14.482 175.339 0.03935 -0.48265 
3.250 442.0 67.386 14.716 172.894 0.06079 -0.48760 
3.275 442.0 66.328 14.859 170.382 0.08282 -0.48876 
3.300 442.0 63.887 14.903 168.028 0.10310 -0.48624 
3.325 442.0 59.748 14.864 165.617 0.12318 -0.48035 
3.350 455.0 69.901 14.750 163.392 0.14074 -0.47189 
3.375 455.0 69.840 14.536 161.369 0.15524 -0.46044 
3.400 455.0 71.306 14.268 159.621 0.16636 -0.44782 
3.425 455.0 70.075 14.019 158.332 0.17355 -0.43683 
3.450 455.0 68.369 13.698 157.206 0.17827 -0.42421 
3.475 455.0 66.848 13.392 156.433 0.18016 -0.41303 
3.500 455.0 64.291 13.100 155.858 0.18058 -0.40290 
3.525 455.0 61.790 12.803 155.529 0.17903 -0.39336 
3.550 455.0 59.781 12.506 155.493 0.17538 -0.38470 
3.575 455.0 58.411 12.282 155.610 0.17167 -0.37862 
3.600 467.0 68.584 12.089 156.035 0.16636 -0.37427 
3.625 467.0 67.159 11.924 156.383 0.16198 -0.37045 
3.650 467.0 66.600 11.775 157.105 0.15545 -0.36808 
3.675 467.0 65.163 11.706 157.790 0.15020 -0.36786 
3.700 467.0 64.714 11.659 158.441 0.14545 -0.36814 
3.725 467.0 63.896 11.620 159.142 0.14049 -0.36871 
3.750 467.0 62.642 11.646 159.717 0.13708 -0.37091 
3.775 467.0 62.260 11.694 160.329 0.13363 -0.37380 
3.800 467.0 60.003 11.758 160.653 0.13219 -0.37648 
3.825 477.0 67.707 11.838 160.950 0.13107 -0.37957 
3.850 477.0 64.109 11.923 161.207 0.13024 -0.38274 
3.875 477.0 59.218 12.050 161.467 0.12979 -0.38716 
3.900 489.0 66.238 12.130 161.417 0.13093 -0.38945 
3.925 489.0 61.603 12.212 161.415 0.13178 -0.39193 
3.950 499.0 68.258 12.331 161.112 0.13508 -0.39480 
3.975 499.0 63.770 12.407 161.009 0.13657 -0.39685 
4.000 499.0 59.752 12.468 160.661 0.13962 -0.39782 
4.025 512.0 68.952 12.537 160.384 0.14227 -0.39920 
4.050 512.0 64.809 12.575 159.814 0.14665 -0.39889 
4.075 512.0 61.846 12.638 159.526 0.14934 -0.40000 
4.100 524.0 69.026 12.718 159.012 0.15384 -0.40101 
4.125 524.0 65.437 12.670 158.721 0.15532 -0.39881 
4.150 524.0 60.879 12.764 158.338 0.15908 -0.40052 
4.175 535.0 67.138 12.797 157.983 0.16195 -0.40048 
4.200 535.0 65.579 12.760 157.342 0.16597 -0.39757 
4.225 535.0 63.611 12.761 156.991 0.16841 -0.39657 
4.250 535.0 60.302 12.756 156.574 0.17123 -0.39520 
4.275 547.0 68.749 12.787 156.460 0.17241 -0.39575 
4.300 562.0 70.234 12.667 155.847 0.17508 -0.39043 
4.325 562.0 74.022 12.628 155.378 0.17776 -0.38787 
4.350 562.0 77.772 12.573 155.229 0.17804 -0.38582 
4.375 562.0 79.660 12.536 155.019 0.17896 -0.38410 
4.400 550.0 70.791 12.491 154.773 0.18001 -0.38207 
4.425 550.0 71.686 12.502 154.760 0.18023 -0.38232 
4.450 550.0 73.465 12.417 154.568 0.18036 -0.37929 
4.475 550.0 73.595 12.424 154.397 0.18159 -0.37896 
4.500 550.0 74.619 12.437 154.465 0.18132 -0.37955 
4.525 550.0 74.116 12.341 154.436 0.18020 -0.37672 
4.550 550.0 74.455 12.353 154.299 0.18127 -0.37663 
4.575 550.0 73.729 12.410 154.208 0.18264 -0.37794 
4.600 550.0 73.143 12.321 154.138 0.18188 -0.37520 
4.625 550.0 71.243 12.347 154.188 0.18190 -0.37609 
4.650 550.0 69.320 12.343 153.959 0.18335 -0.37524 
4.675 550.0 68.236 12.370 153.971 0.18365 -0.37605 
4.700 550.0 66.512 12.335 153.790 0.18435 -0.37448 
4.725 550.0 65.375 12.410 153.967 0.18424 -0.37719 
4.750 550.0 62.976 12.430 153.754 0.18591 -0.37705 
4.775 550.0 61.174 12.423 153.569 0.18703 -0.37626 
4.800 550.0 59.701 12.427 153.665 0.18645 -0.37668 
4.825 563.0 68.211 12.509 153.459 0.18896 -0.37832 
4.850 563.0 66.807 12.440 153.515 0.18763 -0.37658 
4.875 563.0 64.803 12.507 153.593 0.18805 -0.37872 
4.900 563.0 62.812 12.502 153.228 0.19039 -0.37738 
4.925 563.0 61.247 12.510 153.016 0.19191 -0.37691 
4.950 576.0 71.264 12.505 153.029 0.19174 -0.37679 
4.975 576.0 69.001 12.546 152.964 0.19276 -0.37772 
5.000 576.0 67.918 12.477 152.511 0.19473 -0.37425 
5.025 576.0 65.568 12.522 152.609 0.19475 -0.37586 
5.050 576.0 63.589 12.517 152.455 0.19568 -0.37519 
5.075 576.0 61.251 12.533 152.323 0.19678 -0.37519 
5.100 576.0 59.271 12.611 152.415 0.19733 -0.37769 
5.125 589.0 68.294 12.687 152.156 0.20016 -0.37892 
5.150 589.0 65.610 12.631 151.944 0.20072 -0.37661 
5.175 589.0 62.785 12.568 151.722 0.20123 -0.37407 
5.200 589.0 60.831 12.657 151.770 0.20226 -0.37673 
5.225 601.0 68.628 12.558 151.481 0.20266 -0.37296 
5.250 601.0 65.254 12.683 151.311 0.20565 -0.37580 
5.275 601.0 62.767 12.599 151.201 0.20509 -0.37308 
5.300 601.0 60.688 12.624 151.006 0.20675 -0.37309 
5.325 613.0 68.333 12.621 150.793 0.20809 -0.37223 
5.350 613.0 66.455 12.637 150.805 0.20825 -0.37270 
5.375 613.0 63.554 12.655 150.763 0.20881 -0.37306 
5.400 613.0 62.476 12.695 150.816 0.20909 -0.37436 
5.425 613.0 59.874 12.614 150.363 0.21077 -0.37047 
5.450 613.0 58.291 12.677 150.622 0.21007 -0.37315 
5.475 631.0 70.559 12.800 150.463 0.21301 -0.37592 
5.500 631.0 68.192 12.662 150.196 0.21260 -0.37116 
5.525 631.0 65.377 12.764 149.800 0.21678 -0.37247 
5.550 631.0 62.590 12.727 149.819 0.21607 -0.37153 
5.575 631.0 60.812 12.752 149.728 0.21706 -0.37186 
5.600 647.0 69.648 12.738 149.632 0.21745 -0.37112 
5.625 647.0 66.661 12.883 149.859 0.21827 -0.37592 
5.650 647.0 63.843 12.763 149.475 0.21887 -0.37119 
5.675 647.0 60.068 12.743 149.262 0.21993 -0.36984 
5.700 662.0 68.056 12.759 149.428 0.21911 -0.37092 
5.725 662.0 64.993 12.852 149.034 0.22317 -0.37191 
5.750 662.0 61.685 12.832 148.893 0.22376 -0.37083 
5.775 680.0 71.573 12.743 148.482 0.22495 -0.36682 
5.800 680.0 66.858 12.820 148.248 0.22772 -0.36796 
5.825 680.0 62.606 12.808 148.564 0.22548 -0.36888 
5.850 695.0 68.604 12.808 148.402 0.22653 -0.36825 
5.875 695.0 63.558 12.723 147.915 0.22822 -0.36403 
5.900 695.0 59.034 12.931 148.407 0.22853 -0.37156 
5.925 715.0 67.645 13.019 147.912 0.23319 -0.37190 
5.950 715.0 63.107 12.869 147.873 0.23093 -0.36775 
5.975 730.0 67.282 12.922 147.816 0.23218 -0.36893 
6.000 730.0 61.755 12.867 147.477 0.23343 -0.36609 
6.025 747.0 67.433 12.998 148.007 0.23223 -0.37175 
6.050 747.0 63.071 12.852 147.276 0.23446 -0.36487 
6.075 764.0 68.868 12.958 146.889 0.23875 -0.36608 
6.100 764.0 63.672 13.016 146.614 0.24150 -0.36645 
6.125 764.0 58.170 13.118 147.125 0.23995 -0.37127 
6.150 780.0 62.563 12.793 147.273 0.23349 -0.36332 
6.175 780.0 58.905 13.024 147.248 0.23758 -0.36932 
6.200 780.0 55.107 12.913 146.776 0.23870 -0.36443 
6.225 780.0 51.290 12.943 146.117 0.24340 -0.36244 
6.250 780.0 47.286 12.806 146.540 0.23834 -0.36064 
6.275 780.0 44.168 13.079 145.603 0.24905 -0.36377 
6.300 780.0 40.829 13.120 144.469 0.25694 -0.35980 
6.325 780.0 37.709 12.876 145.461 0.24634 -0.35791 
6.350 780.0 34.280 12.852 145.849 0.24349 -0.35894 
6.375 780.0 31.749 12.880 145.279 0.24753 -0.35721 
6.400 780.0 28.644 12.725 145.659 0.24241 -0.35482 
6.425 780.0 25.485 13.035 145.257 0.25046 -0.36112 
6.450 780.0 22.207 12.896 147.002 0.23697 -0.36493 
6.475 780.0 19.793 12.722 145.384 0.24406 -0.35358 
6.500 780.0 16.996 12.569 145.566 0.24021 -0.35037 

# MINIMA:
0.600 410.0 16.996 5.574 3.703 -0.91218 -0.81516 

# MAXIMA:
6.500 4000.5 80.030 41.412 357.321 0.88025 0.97854 

# PEAKS:

# END SPECTRUM


# SPECTRUM:
2

# START TIME:
12:35:31

# END TIME:
12:46:16

# THETA ANGLE:
0.00 ø

# INCIDENCE ANGLE:
60.00 ø

# ACCUMULATION NUMBER:
1

# ELLIPSOMETRIC CONFIGURATION:
0.00 ø :Modulator
+45.00 øAnalyser

# INTEGRATION TIME:
500 ms

# FIRST POINT:
0.6000 eV

# LAST POINT:
6.5000 eV

# INCREMENT:
0.0250 eV

# NUMBER OF POINTS:
237

# DATA:
eV Hv S0 Psi Delta Is Ic 
0.600 3797.3 60.800 18.677 227.712 -0.44885 -0.40825 
0.625 3498.9 79.192 19.722 227.126 -0.46559 -0.43227 
0.650 3397.3 77.832 20.706 226.384 -0.47889 -0.45631 
0.675 3397.3 74.652 21.428 224.061 -0.47300 -0.48876 
0.700 2895.6 80.021 21.590 220.407 -0.44358 -0.52106 
0.725 2495.6 78.203 21.933 216.116 -0.40846 -0.55981 
0.750 2495.6 77.449 22.171 211.602 -0.36625 -0.59529 
0.775 2095.5 78.382 22.284 206.804 -0.31645 -0.62635 
0.800 1295.4 75.851 22.426 201.589 -0.25950 -0.65579 
0.825 1593.9 63.236 22.497 196.052 -0.19550 -0.67948 
0.850 1593.9 62.407 22.523 190.556 -0.12965 -0.69570 
0.875 1193.8 74.334 22.512 184.846 -0.05976 -0.70486 
0.900 1295.4 64.763 22.590 179.112 0.01099 -0.70924 
0.925 1397.0 65.972 22.642 173.360 0.08217 -0.70583 
0.950 1397.0 62.150 22.665 167.603 0.15267 -0.69458 
0.975 1098.6 74.383 22.637 161.763 0.22235 -0.67480 
1.000 1397.0 70.229 22.589 156.344 0.28460 -0.64971 
1.025 1397.0 77.670 22.569 150.947 0.34421 -0.61961 
1.050 895.4 70.406 22.428 145.549 0.39902 -0.58163 
1.075 1295.4 66.839 22.374 140.585 0.44699 -0.54389 
1.100 1295.4 74.620 22.251 135.304 0.49300 -0.49826 
1.125 1295.4 73.788 22.126 129.650 0.53729 -0.44528 
1.150 1193.8 68.399 22.092 122.965 0.58475 -0.37923 
1.175 1193.8 63.536 22.400 112.537 0.65082 -0.27007 
1.200 1492.3 70.929 24.375 97.016 0.74620 -0.09184 
1.225 1193.8 72.038 27.595 83.069 0.81504 0.09907 
1.250 793.8 60.940 31.719 69.963 0.84031 0.30647 
1.275 1492.3 71.766 35.983 56.528 0.79318 0.52444 
1.300 1492.3 61.144 40.141 38.344 0.61147 0.77305 
1.325 1993.9 62.748 41.539 16.243 0.27767 0.95309 
1.350 1397.0 73.609 43.572 346.365 -0.23545 0.97061 
1.375 1797.1 62.399 40.503 322.984 -0.59463 0.78865 
1.400 1600.2 74.554 36.827 300.920 -0.82321 0.49306 
1.425 3898.9 38.836 32.405 287.444 -0.86328 0.27127 
1.450 4000.5 21.008 29.107 274.853 -0.84697 0.07191 
1.475 780.0 79.929 25.227 262.339 -0.76422 -0.10280 
1.500 566.0 63.486 25.014 254.551 -0.73866 -0.20414 
1.525 673.0 73.455 23.576 245.774 -0.66860 -0.30084 
1.550 599.0 64.839 22.909 237.645 -0.60578 -0.38378 
1.575 641.0 65.994 22.264 229.287 -0.53154 -0.45740 
1.600 641.0 72.410 21.862 221.036 -0.45379 -0.52136 
1.625 579.0 75.197 21.620 213.911 -0.38219 -0.56853 
1.650 579.0 59.064 21.393 205.775 -0.29537 -0.61169 
1.675 579.0 72.361 21.212 198.387 -0.21279 -0.64016 
1.700 564.0 70.763 21.172 190.741 -0.12553 -0.66178 
1.725 552.0 69.336 21.023 183.394 -0.03964 -0.66855 
1.750 540.0 68.897 20.978 176.021 0.04640 -0.66694 
1.775 529.0 68.545 20.941 168.673 0.13113 -0.65459 
1.800 512.0 70.053 20.828 161.018 0.21620 -0.62852 
1.825 512.0 77.466 20.763 153.805 0.29264 -0.59487 
1.850 497.0 68.997 20.674 146.060 0.36885 -0.54808 
1.875 497.0 74.727 20.593 138.554 0.43586 -0.49360 
1.900 487.0 71.507 20.532 130.610 0.49870 -0.42759 
1.925 487.0 76.574 20.596 122.857 0.55322 -0.35730 
1.950 477.0 68.643 20.602 114.371 0.60005 -0.27183 
1.975 477.0 71.308 20.776 105.517 0.63914 -0.17745 
2.000 477.0 71.175 21.129 95.721 0.66911 -0.06704 
2.025 477.0 66.541 21.548 85.167 0.68079 0.05756 
2.050 487.0 69.031 22.182 73.288 0.66969 0.20107 
2.075 487.0 70.905 22.748 59.365 0.61366 0.36342 
2.100 487.0 66.740 23.435 42.525 0.49329 0.53786 
2.125 487.0 62.770 23.664 23.785 0.29653 0.67280 
2.150 487.0 61.759 23.278 2.623 0.03323 0.72529 
2.175 487.0 64.324 22.085 340.984 -0.22704 0.65876 
2.200 487.0 70.571 20.514 320.831 -0.41461 0.50893 
2.225 476.0 68.228 18.875 302.168 -0.51824 0.32595 
2.250 467.0 69.292 17.483 285.837 -0.55133 0.15639 
2.275 459.0 70.790 16.466 271.295 -0.54352 0.01228 
2.300 449.0 69.939 15.663 257.832 -0.50821 -0.10958 
2.325 441.0 69.435 15.131 245.175 -0.45737 -0.21158 
2.350 441.0 78.372 14.813 234.034 -0.40009 -0.29032 
2.375 428.0 69.780 14.617 224.137 -0.34009 -0.35049 
2.400 428.0 76.450 14.527 214.529 -0.27527 -0.40008 
2.425 417.0 70.904 14.461 205.547 -0.20856 -0.43633 
2.450 407.0 70.313 14.446 197.477 -0.14511 -0.46086 
2.475 407.0 76.878 14.402 189.848 -0.08241 -0.47472 
2.500 423.0 67.589 14.321 182.277 -0.01905 -0.47895 
2.525 423.0 73.143 14.248 175.135 0.04046 -0.47537 
2.550 423.0 71.839 14.106 168.220 0.09651 -0.46278 
2.575 416.0 71.035 13.905 161.588 0.14735 -0.44264 
2.600 416.0 65.917 13.735 154.900 0.19568 -0.41773 
2.625 407.0 69.221 13.464 148.261 0.23824 -0.38516 
2.650 407.0 75.845 13.128 141.778 0.27371 -0.34755 
2.675 407.0 66.127 12.781 135.617 0.30180 -0.30837 
2.700 407.0 60.933 12.371 129.129 0.32466 -0.26412 
2.725 417.0 67.843 11.789 122.056 0.33900 -0.21229 
2.750 417.0 71.013 11.179 115.137 0.34437 -0.16159 
2.775 417.0 61.801 10.551 108.976 0.34045 -0.11707 
2.800 427.0 70.384 9.747 101.819 0.32663 -0.06835 
2.825 427.0 69.505 8.857 94.689 0.30325 -0.02487 
2.850 427.0 65.144 7.797 87.154 0.26848 0.01335 
2.875 427.0 62.538 6.669 79.157 0.22659 0.04340 
2.900 427.0 61.056 5.492 71.654 0.18086 0.05997 
2.925 436.0 69.536 4.305 64.528 0.13515 0.06438 
2.950 436.0 70.062 2.972 56.072 0.08593 0.05780 
2.975 436.0 67.966 1.709 46.990 0.04359 0.04066 
3.000 436.0 66.868 0.464 24.918 0.00682 0.01469 
3.025 436.0 65.769 0.734 228.359 -0.01915 -0.01703 
3.050 436.0 64.978 1.795 214.882 -0.03580 -0.05135 
3.075 436.0 64.504 2.750 207.235 -0.04387 -0.08523 
3.100 426.0 71.140 3.675 200.789 -0.04540 -0.11959 
3.125 426.0 72.176 4.496 194.864 -0.04009 -0.15106 
3.150 426.0 70.540 5.227 189.355 -0.02950 -0.17903 
3.175 426.0 69.171 5.863 184.291 -0.01521 -0.20266 
3.200 426.0 67.906 6.402 179.438 0.00217 -0.22161 
3.225 426.0 67.249 6.857 174.728 0.02178 -0.23608 
3.250 426.0 66.244 7.300 170.342 0.04229 -0.24851 
3.275 426.0 65.372 7.628 165.591 0.06548 -0.25486 
3.300 426.0 62.042 7.919 161.301 0.08750 -0.25852 
3.325 426.0 58.731 8.099 156.816 0.10982 -0.25643 
3.350 437.0 67.243 8.249 152.379 0.13167 -0.25163 
3.375 437.0 67.798 8.282 148.361 0.14954 -0.24270 
3.400 437.0 68.984 8.239 144.801 0.16349 -0.23178 
3.425 437.0 68.713 8.162 141.543 0.17481 -0.22010 
3.450 437.0 67.455 8.038 138.716 0.18269 -0.20807 
3.475 437.0 65.881 7.853 136.097 0.18772 -0.19505 
3.500 437.0 63.671 7.667 134.070 0.19000 -0.18393 
