## SPECTRUM TYPE:
Spectroscopic

## DATE:
11/9/2011

## COMMENTS:

## NUMBER OF SPECTRUM:
5

## ELLIPSOMETRIC CONFIGURATION:
-45.00 øModulator
-45.00 øAnalyser

## UNIT:
eV


# SPECTRUM:
1

# START TIME:
13:20:04

# END TIME:
13:32:13

# THETA ANGLE:
0.00 ø

# INCIDENCE ANGLE:
55.00 ø

# ACCUMULATION NUMBER:
1

# ELLIPSOMETRIC CONFIGURATION:
-45.00 øModulator
-45.00 øAnalyser

# INTEGRATION TIME:
500 ms

# FIRST POINT:
0.6000 eV

# LAST POINT:
6.5000 eV

# INCREMENT:
0.0250 eV

# NUMBER OF POINTS:
237

# DATA:
eV Hv S0 Psi Delta Is Ic 
0.600 3898.9 57.237 28.455 331.940 0.39411 -0.54595 
0.625 3702.1 78.879 28.642 331.429 0.40237 -0.54048 
0.650 3302.0 77.387 28.634 331.867 0.39664 -0.54071 
0.675 3302.0 80.989 28.928 332.773 0.38739 -0.53206 
0.700 2305.1 77.823 29.003 335.199 0.35575 -0.52982 
0.725 1905.0 77.356 29.038 337.702 0.32203 -0.52881 
0.750 1803.4 77.687 29.249 340.686 0.28200 -0.52253 
0.775 1606.6 80.971 29.433 344.034 0.23545 -0.51703 
0.800 1104.9 75.428 29.285 347.509 0.18455 -0.52146 
0.825 1301.8 60.338 29.445 351.285 0.12973 -0.51669 
0.850 1403.4 71.627 29.537 354.999 0.07478 -0.51393 
0.875 1003.3 67.565 29.590 358.913 0.01630 -0.51233 
0.900 1200.2 76.033 29.669 2.846 -0.04271 -0.50998 
0.925 1301.8 74.633 29.649 6.679 -0.10000 -0.51058 
0.950 1301.8 66.042 29.559 10.550 -0.15713 -0.51326 
0.975 1003.3 68.309 29.519 14.469 -0.21425 -0.51446 
1.000 1301.8 65.864 29.356 18.075 -0.26514 -0.51934 
1.025 1301.8 69.822 29.368 21.651 -0.31537 -0.51899 
1.050 901.7 68.906 29.280 25.114 -0.36211 -0.52160 
1.075 1301.8 65.752 29.102 28.143 -0.40089 -0.52690 
1.100 1301.8 68.847 28.878 31.366 -0.44023 -0.53353 
1.125 1301.8 66.053 28.710 34.633 -0.47889 -0.53848 
1.150 1301.8 71.594 28.448 38.550 -0.52204 -0.54616 
1.175 1403.4 70.530 28.281 45.125 -0.59135 -0.55104 
1.200 1803.4 62.030 28.413 57.854 -0.70870 -0.54717 
1.225 1606.6 79.353 29.887 72.970 -0.82616 -0.50341 
1.250 1104.9 70.690 33.104 75.262 -0.88491 -0.40342 
1.275 2406.7 62.633 37.517 57.852 -0.81796 -0.25824 
1.300 3206.8 60.983 42.910 29.021 -0.48385 -0.07288 
1.325 3905.3 55.192 45.371 357.606 0.04176 0.01296 
1.350 2603.5 79.470 42.586 318.398 0.66159 -0.08418 
1.375 2603.5 61.852 38.068 294.550 0.88310 -0.23960 
1.400 2101.9 78.960 33.014 275.460 0.90960 -0.40628 
1.425 3898.9 31.314 30.656 283.514 0.85295 -0.48005 
1.450 4000.5 18.155 28.723 293.319 0.77403 -0.53810 
1.475 780.0 46.661 27.198 305.561 0.66142 -0.58218 
1.500 608.0 68.116 26.405 309.513 0.61459 -0.60445 
1.525 709.0 70.952 25.987 317.180 0.53541 -0.61603 
1.550 632.0 66.463 25.944 323.313 0.47008 -0.61719 
1.575 667.0 65.096 25.970 329.597 0.39848 -0.61648 
1.600 667.0 76.171 25.963 335.423 0.32741 -0.61667 
1.625 595.0 74.609 26.009 340.640 0.26129 -0.61540 
1.650 595.0 60.926 26.064 346.284 0.18717 -0.61389 
1.675 595.0 75.790 26.071 351.494 0.11678 -0.61370 
1.700 574.0 69.818 26.126 356.803 0.04410 -0.61218 
1.725 563.0 69.398 26.017 1.990 -0.02738 -0.61520 
1.750 551.0 69.019 25.880 7.262 -0.09928 -0.61897 
1.775 551.0 77.867 25.750 12.352 -0.16740 -0.62253 
1.800 526.0 71.323 25.506 17.839 -0.23812 -0.62915 
1.825 526.0 74.260 25.199 23.192 -0.30343 -0.63745 
1.850 515.0 68.760 24.869 28.755 -0.36711 -0.64628 
1.875 515.0 70.751 24.470 34.444 -0.42647 -0.65685 
1.900 515.0 75.170 24.025 40.732 -0.48530 -0.66848 
1.925 515.0 76.299 23.584 46.988 -0.53623 -0.67986 
1.950 515.0 75.196 23.123 54.293 -0.58654 -0.69155 
1.975 515.0 72.701 22.655 62.621 -0.63128 -0.70328 
2.000 515.0 67.049 22.202 72.739 -0.66820 -0.71442 
2.025 528.0 68.654 21.882 83.347 -0.68704 -0.72219 
2.050 541.0 66.573 21.477 79.568 -0.67015 -0.73190 
2.075 541.0 64.212 20.982 58.932 -0.57275 -0.74356 
2.100 555.0 68.666 20.289 33.200 -0.35617 -0.75953 
2.125 555.0 67.670 19.358 3.413 -0.03724 -0.78025 
2.150 555.0 74.133 18.551 331.563 0.28726 -0.79755 
2.175 535.0 69.252 18.033 302.245 0.49792 -0.80834 
2.200 519.0 70.207 18.005 280.791 0.57753 -0.80891 
2.225 501.0 70.344 18.206 282.597 0.57930 -0.80477 
2.250 484.0 70.175 18.536 295.922 0.54216 -0.79789 
2.275 470.0 68.884 18.926 306.911 0.49063 -0.78960 
2.300 458.0 68.755 19.335 316.463 0.43040 -0.78076 
2.325 447.0 67.682 19.732 325.000 0.36456 -0.77203 
2.350 447.0 77.449 20.027 331.796 0.30413 -0.76544 
2.375 435.0 71.414 20.351 338.024 0.24404 -0.75811 
2.400 435.0 78.820 20.524 343.833 0.18285 -0.75415 
2.425 422.0 71.013 20.677 349.274 0.12296 -0.75064 
2.450 411.0 69.263 20.771 354.199 0.06703 -0.74847 
2.475 411.0 75.142 20.728 358.778 0.01412 -0.74948 
2.500 444.0 65.177 20.627 3.503 -0.04029 -0.75179 
2.525 444.0 69.934 20.415 7.887 -0.08972 -0.75665 
2.550 444.0 66.399 20.160 12.142 -0.13610 -0.76243 
2.575 444.0 71.436 19.797 16.235 -0.17818 -0.77059 
2.600 444.0 63.896 19.345 20.334 -0.21722 -0.78053 
2.625 444.0 74.226 18.763 24.418 -0.25180 -0.79308 
2.650 444.0 77.451 18.119 28.345 -0.28066 -0.80658 
2.675 444.0 63.489 17.405 32.096 -0.30331 -0.82106 
2.700 456.0 66.620 16.491 36.005 -0.32002 -0.83884 
2.725 467.0 69.146 15.348 39.990 -0.32806 -0.85989 
2.750 467.0 67.770 14.110 43.622 -0.32622 -0.88114 
2.775 480.0 67.782 12.872 46.368 -0.31438 -0.90074 
2.800 480.0 62.111 11.470 48.627 -0.29249 -0.92091 
2.825 491.0 69.127 9.895 49.345 -0.25686 -0.94094 
2.850 491.0 63.590 8.215 47.931 -0.20998 -0.95916 
2.875 491.0 60.121 6.775 42.463 -0.15817 -0.97217 
2.900 501.0 69.548 5.849 31.631 -0.10633 -0.97923 
2.925 501.0 69.978 5.575 17.088 -0.05683 -0.98112 
2.950 501.0 74.166 5.995 2.988 -0.01083 -0.97818 
2.975 501.0 75.598 6.825 354.325 0.02334 -0.97175 
3.000 492.0 68.942 8.072 350.124 0.04769 -0.96057 
3.025 492.0 72.198 9.143 348.745 0.06124 -0.94950 
3.050 492.0 75.602 10.178 349.053 0.06605 -0.93755 
3.075 492.0 79.417 11.114 350.345 0.06345 -0.92569 
3.100 455.0 60.487 11.970 352.344 0.05406 -0.91398 
3.125 455.0 64.732 12.712 354.516 0.04102 -0.90316 
3.150 455.0 66.273 13.280 356.882 0.02432 -0.89447 
3.175 455.0 66.772 13.828 359.374 0.00507 -0.88576 
3.200 455.0 66.981 14.196 1.817 -0.01508 -0.87972 
3.225 455.0 67.670 14.490 4.145 -0.03502 -0.87479 
3.250 455.0 67.515 14.698 6.548 -0.05597 -0.87124 
3.275 455.0 66.465 14.833 9.077 -0.07808 -0.86893 
3.300 455.0 64.426 14.882 11.434 -0.09841 -0.86808 
3.325 455.0 60.115 14.822 13.889 -0.11873 -0.86912 
3.350 466.0 68.812 14.699 16.202 -0.13697 -0.87122 
3.375 466.0 68.495 14.500 18.148 -0.15101 -0.87462 
3.400 466.0 69.193 14.273 19.734 -0.16135 -0.87844 
3.425 466.0 68.660 13.950 21.240 -0.16952 -0.88377 
3.450 466.0 66.635 13.667 22.187 -0.17340 -0.88834 
3.475 466.0 64.650 13.331 23.043 -0.17564 -0.89367 
3.500 466.0 62.685 13.050 23.602 -0.17614 -0.89803 
3.525 466.0 60.493 12.723 23.865 -0.17383 -0.90299 
3.550 466.0 57.811 12.497 23.883 -0.17107 -0.90635 
3.575 478.0 68.199 12.242 23.760 -0.16698 -0.91008 
3.600 478.0 66.881 12.005 23.435 -0.16183 -0.91347 
3.625 478.0 65.632 11.847 22.854 -0.15608 -0.91570 
3.650 478.0 64.430 11.631 22.386 -0.15040 -0.91871 
3.675 478.0 64.458 11.597 21.542 -0.14462 -0.91917 
3.700 478.0 63.689 11.500 20.960 -0.13977 -0.92051 
3.725 478.0 64.079 11.513 20.172 -0.13488 -0.92033 
3.750 478.0 63.752 11.476 19.646 -0.13110 -0.92084 
3.775 478.0 62.634 11.588 19.082 -0.12866 -0.91931 
3.800 478.0 60.954 11.657 18.592 -0.12618 -0.91835 
3.825 488.0 68.820 11.687 18.431 -0.12543 -0.91794 
3.850 488.0 66.541 11.810 18.051 -0.12415 -0.91622 
3.875 488.0 61.754 11.898 18.004 -0.12470 -0.91499 
3.900 499.0 68.350 12.019 17.944 -0.12550 -0.91328 
3.925 499.0 64.323 12.128 18.082 -0.12751 -0.91172 
3.950 499.0 60.772 12.202 18.225 -0.12922 -0.91066 
3.975 510.0 68.203 12.308 18.513 -0.13225 -0.90913 
4.000 510.0 64.429 12.384 18.614 -0.13372 -0.90801 
4.025 510.0 60.436 12.489 19.017 -0.13759 -0.90647 
4.050 521.0 68.329 12.557 19.484 -0.14156 -0.90547 
4.075 521.0 64.954 12.492 19.871 -0.14356 -0.90643 
4.100 521.0 61.090 12.585 20.154 -0.14653 -0.90505 
4.125 532.0 67.703 12.559 20.631 -0.14957 -0.90543 
4.150 532.0 64.455 12.573 21.069 -0.15276 -0.90522 
4.175 532.0 61.687 12.634 21.456 -0.15614 -0.90432 
4.200 532.0 59.295 12.752 21.563 -0.15825 -0.90255 
4.225 545.0 68.235 12.660 22.201 -0.16160 -0.90393 
4.250 545.0 66.169 12.707 22.461 -0.16396 -0.90323 
4.275 545.0 63.236 12.656 22.926 -0.16655 -0.90400 
4.300 607.0 67.020 12.575 23.374 -0.16861 -0.90519 
4.325 607.0 70.587 12.611 23.542 -0.17021 -0.90466 
4.350 607.0 74.020 12.624 23.737 -0.17170 -0.90448 
4.375 607.0 76.875 12.563 24.072 -0.17320 -0.90537 
4.400 607.0 79.597 12.592 24.067 -0.17354 -0.90494 
4.425 596.0 71.180 12.574 24.166 -0.17398 -0.90521 
4.450 596.0 72.328 12.453 24.584 -0.17520 -0.90700 
4.475 596.0 73.241 12.463 24.666 -0.17589 -0.90685 
4.500 596.0 74.818 12.466 24.450 -0.17448 -0.90681 
4.525 596.0 74.254 12.387 24.800 -0.17577 -0.90797 
4.550 596.0 75.885 12.429 24.806 -0.17636 -0.90736 
4.575 596.0 75.076 12.414 24.870 -0.17659 -0.90758 
4.600 596.0 75.144 12.423 24.821 -0.17639 -0.90744 
4.625 596.0 74.115 12.346 25.078 -0.17706 -0.90856 
4.650 596.0 72.415 12.369 24.991 -0.17680 -0.90823 
4.675 596.0 71.714 12.364 25.073 -0.17727 -0.90831 
4.700 596.0 69.880 12.459 24.883 -0.17728 -0.90691 
4.725 596.0 68.136 12.408 25.003 -0.17740 -0.90766 
4.750 596.0 67.608 12.473 25.145 -0.17922 -0.90670 
4.775 596.0 66.128 12.491 25.089 -0.17908 -0.90645 
4.800 596.0 64.167 12.402 25.360 -0.17969 -0.90774 
4.825 596.0 61.435 12.373 25.545 -0.18050 -0.90817 
4.850 596.0 60.548 12.453 25.550 -0.18163 -0.90701 
4.875 608.0 68.710 12.479 25.792 -0.18359 -0.90662 
4.900 608.0 67.173 12.478 25.898 -0.18429 -0.90663 
4.925 608.0 65.794 12.486 25.897 -0.18439 -0.90651 
4.950 608.0 64.609 12.442 25.948 -0.18412 -0.90716 
4.975 608.0 64.028 12.485 26.098 -0.18570 -0.90654 
5.000 608.0 62.772 12.567 26.170 -0.18733 -0.90532 
5.025 608.0 61.893 12.541 26.397 -0.18847 -0.90570 
5.050 608.0 59.923 12.580 26.386 -0.18894 -0.90512 
5.075 620.0 67.842 12.509 26.602 -0.18937 -0.90618 
5.100 620.0 66.654 12.632 26.409 -0.18982 -0.90435 
5.125 620.0 65.332 12.644 26.640 -0.19153 -0.90418 
5.150 620.0 63.409 12.538 27.033 -0.19263 -0.90574 
5.175 620.0 61.796 12.587 27.266 -0.19488 -0.90501 
5.200 620.0 60.285 12.526 27.362 -0.19462 -0.90592 
5.225 635.0 69.413 12.590 27.420 -0.19593 -0.90498 
5.250 635.0 67.782 12.526 27.783 -0.19737 -0.90593 
5.275 635.0 66.754 12.652 27.352 -0.19638 -0.90406 
5.300 635.0 64.048 12.616 27.960 -0.19987 -0.90459 
5.325 635.0 62.920 12.754 27.471 -0.19865 -0.90253 
5.350 635.0 61.280 12.621 28.134 -0.20109 -0.90451 
5.375 635.0 59.698 12.664 28.090 -0.20143 -0.90387 
5.400 650.0 70.823 12.569 27.881 -0.19866 -0.90529 
5.425 650.0 68.951 12.672 28.040 -0.20122 -0.90376 
5.450 650.0 67.625 12.589 28.543 -0.20329 -0.90498 
5.475 650.0 65.799 12.710 28.310 -0.20357 -0.90318 
5.500 650.0 64.586 12.590 28.855 -0.20532 -0.90498 
5.525 650.0 63.142 12.778 28.506 -0.20589 -0.90216 
5.550 650.0 60.745 12.610 28.888 -0.20584 -0.90468 
5.575 650.0 59.148 12.607 29.085 -0.20709 -0.90472 
5.600 664.0 66.885 12.591 29.200 -0.20759 -0.90495 
5.625 664.0 64.463 12.603 29.332 -0.20863 -0.90478 
5.650 664.0 62.484 12.640 29.554 -0.21064 -0.90423 
5.675 677.0 69.579 12.820 29.102 -0.21046 -0.90153 
5.700 677.0 67.216 12.841 29.577 -0.21391 -0.90121 
5.725 677.0 63.865 12.810 29.498 -0.21291 -0.90168 
5.750 677.0 61.285 12.713 29.804 -0.21340 -0.90314 
5.775 695.0 69.965 12.716 29.946 -0.21437 -0.90309 
5.800 695.0 66.832 12.688 30.113 -0.21500 -0.90352 
5.825 695.0 63.060 12.787 30.011 -0.21591 -0.90203 
5.850 709.0 69.124 12.877 29.842 -0.21622 -0.90067 
5.875 709.0 65.449 12.891 29.962 -0.21723 -0.90045 
5.900 709.0 60.988 12.820 30.374 -0.21881 -0.90152 
5.925 725.0 67.147 12.901 30.755 -0.22258 -0.90030 
5.950 725.0 62.344 12.818 30.985 -0.22274 -0.90156 
5.975 725.0 57.828 12.754 31.207 -0.22312 -0.90253 
6.000 745.0 65.979 12.906 30.502 -0.22100 -0.90023 
6.025 759.0 70.128 12.624 31.220 -0.22109 -0.90446 
6.050 759.0 65.200 12.868 30.944 -0.22328 -0.90080 
6.075 759.0 60.810 12.694 32.146 -0.22813 -0.90342 
6.100 780.0 0.000 45.000 0.000 0.00000 0.00000 
6.125 780.0 65.317 13.206 30.279 -0.22429 -0.89561 
6.150 780.0 60.928 12.742 30.758 -0.22004 -0.90271 
6.175 780.0 55.866 13.423 29.076 -0.21947 -0.89222 
6.200 780.0 53.211 12.969 31.665 -0.22961 -0.89927 
6.225 780.0 49.403 12.675 32.198 -0.22813 -0.90371 
6.250 780.0 46.641 12.794 33.055 -0.23558 -0.90192 
6.275 780.0 43.793 12.691 32.135 -0.22800 -0.90347 
6.300 780.0 40.997 13.162 31.728 -0.23320 -0.89630 
6.325 780.0 37.762 12.850 32.335 -0.23195 -0.90108 
6.350 780.0 34.741 12.483 32.784 -0.22854 -0.90656 
6.375 780.0 31.618 12.830 33.769 -0.24070 -0.90138 
6.400 780.0 29.095 12.635 33.655 -0.23658 -0.90430 
6.425 780.0 26.176 13.639 28.744 -0.22039 -0.88880 
6.450 780.0 23.049 12.744 31.949 -0.22771 -0.90268 
6.475 780.0 20.504 13.276 30.158 -0.22457 -0.89453 
6.500 780.0 17.916 13.159 29.685 -0.21956 -0.89635 

# MINIMA:
0.600 411.0 0.000 5.575 0.000 -0.88491 -0.98112 

# MAXIMA:
6.500 4000.5 80.989 45.371 359.374 0.90960 0.01296 

# PEAKS:

# END SPECTRUM


# SPECTRUM:
2

# START TIME:
13:33:04

# END TIME:
13:43:49

# THETA ANGLE:
0.00 ø

# INCIDENCE ANGLE:
60.00 ø

# ACCUMULATION NUMBER:
1

# ELLIPSOMETRIC CONFIGURATION:
-45.00 øModulator
-45.00 øAnalyser

# INTEGRATION TIME:
500 ms

# FIRST POINT:
0.6000 eV

# LAST POINT:
6.5000 eV

# INCREMENT:
0.0250 eV

# NUMBER OF POINTS:
237

# DATA:
eV Hv S0 Psi Delta Is Ic 
0.600 3898.9 48.637 25.285 324.557 0.44791 -0.63513 
0.625 3898.9 71.637 25.390 322.712 0.46936 -0.63229 
0.650 3898.9 77.201 25.186 322.084 0.47330 -0.63779 
0.675 3797.3 79.175 25.258 322.680 0.46792 -0.63587 
0.700 2800.4 78.921 25.004 325.017 0.43925 -0.64267 
0.725 2298.7 77.573 24.948 328.028 0.40500 -0.64418 
0.750 2197.1 78.244 24.943 331.649 0.36317 -0.64430 
0.775 1797.1 79.143 24.968 335.857 0.31302 -0.64366 
0.800 1200.2 78.206 24.927 340.455 0.25573 -0.64475 
0.825 1498.6 68.979 24.890 345.413 0.19231 -0.64571 
0.850 1498.6 67.503 24.941 350.434 0.12709 -0.64435 
0.875 1098.6 73.041 24.936 355.697 0.05736 -0.64451 
0.900 1200.2 63.824 24.929 0.994 -0.01327 -0.64469 
0.925 1301.8 63.233 25.001 6.302 -0.08409 -0.64275 
0.950 1403.4 69.411 25.012 11.601 -0.15410 -0.64248 
0.975 1104.9 78.006 25.073 16.874 -0.22284 -0.64083 
1.000 1403.4 72.836 25.099 21.829 -0.28567 -0.64013 
1.025 1403.4 78.100 25.072 26.697 -0.34489 -0.64086 
1.050 901.7 67.000 25.122 31.323 -0.39966 -0.63953 
1.075 1301.8 63.134 25.206 35.517 -0.44770 -0.63726 
1.100 1301.8 68.004 25.209 39.783 -0.49317 -0.63719 
1.125 1301.8 66.524 25.255 44.095 -0.53702 -0.63594 
1.150 1301.8 74.713 25.472 48.902 -0.58518 -0.63008 
1.175 1301.8 65.135 25.866 56.101 -0.65167 -0.61935 
1.200 1600.2 62.846 26.791 67.488 -0.74339 -0.59367 
1.225 1403.4 80.671 28.842 75.471 -0.81808 -0.53460 
1.250 901.7 64.109 31.967 69.356 -0.84061 -0.43941 
1.275 1600.2 61.232 35.936 56.593 -0.79335 -0.31114 
1.300 1797.1 61.824 40.641 38.376 -0.61365 -0.15157 
1.325 2597.2 61.939 44.166 16.221 -0.27923 -0.02911 
1.350 1695.5 80.952 45.134 346.363 0.23578 0.00469 
1.375 2197.1 65.177 42.251 323.212 0.59611 -0.09580 
1.400 1898.7 79.207 37.021 300.855 0.82539 -0.27492 
1.425 4000.5 34.067 33.385 289.639 0.86547 -0.39443 
1.450 4000.5 18.541 29.896 280.235 0.85046 -0.50313 
1.475 780.0 52.149 26.593 287.328 0.76426 -0.59921 
1.500 606.0 70.952 25.181 286.053 0.74007 -0.63793 
1.525 693.0 63.566 23.926 295.802 0.66750 -0.67104 
1.550 637.0 73.158 23.025 303.030 0.60358 -0.69404 
1.575 665.0 65.551 22.421 311.056 0.53174 -0.70904 
1.600 665.0 74.851 22.085 318.994 0.45720 -0.71726 
1.625 584.0 64.840 21.660 326.321 0.38045 -0.72753 
1.650 604.0 67.759 21.477 334.306 0.29543 -0.73191 
1.675 590.0 71.186 21.362 341.673 0.21334 -0.73463 
1.700 575.0 71.007 21.172 349.191 0.12632 -0.73912 
1.725 563.0 69.864 21.094 356.575 0.04012 -0.74095 
1.750 551.0 70.631 21.018 4.008 -0.04680 -0.74273 
1.775 541.0 70.315 20.919 11.299 -0.13069 -0.74503 
1.800 523.0 70.663 20.853 18.822 -0.21465 -0.74657 
1.825 523.0 76.429 20.719 26.224 -0.29244 -0.74967 
1.850 511.0 70.725 20.655 33.798 -0.36721 -0.75115 
1.875 511.0 75.533 20.551 41.363 -0.43443 -0.75355 
1.900 500.0 70.491 20.488 49.364 -0.49761 -0.75499 
1.925 500.0 74.225 20.543 57.095 -0.55176 -0.75373 
1.950 500.0 76.834 20.630 65.266 -0.59897 -0.75174 
1.975 491.0 68.403 20.727 74.323 -0.63738 -0.74949 
2.000 491.0 67.111 21.049 83.708 -0.66636 -0.74200 
2.025 491.0 62.113 21.513 85.341 -0.68007 -0.73105 
2.050 505.0 67.097 22.138 73.874 -0.67065 -0.71598 
2.075 505.0 68.484 22.905 58.923 -0.61411 -0.69705 
2.100 505.0 62.907 23.618 42.176 -0.49292 -0.67898 
2.125 516.0 70.186 23.974 23.520 -0.29632 -0.66982 
2.150 516.0 69.513 23.638 2.551 -0.03270 -0.67847 
2.175 516.0 75.024 22.407 341.115 0.22813 -0.70939 
2.200 503.0 70.822 20.768 321.252 0.41502 -0.74854 
2.225 491.0 71.229 19.084 302.913 0.51878 -0.78620 
2.250 476.0 67.859 17.622 286.279 0.55393 -0.81669 
2.275 466.0 69.901 16.496 270.000 0.54592 -0.83875 
2.300 456.0 70.980 15.710 282.080 0.50978 -0.85336 
2.325 445.0 69.918 15.173 294.536 0.45960 -0.86299 
2.350 445.0 79.777 14.795 305.556 0.40171 -0.86959 
2.375 430.0 69.959 14.602 315.509 0.34194 -0.87288 
2.400 430.0 77.964 14.436 325.007 0.27691 -0.87570 
2.425 417.0 69.789 14.449 334.198 0.21033 -0.87549 
2.450 407.0 70.279 14.391 342.213 0.14709 -0.87645 
2.475 407.0 77.367 14.398 349.874 0.08469 -0.87635 
2.500 448.0 65.694 14.350 357.481 0.02111 -0.87715 
2.525 448.0 70.996 14.249 4.516 -0.03757 -0.87883 
2.550 448.0 68.700 14.126 11.426 -0.09377 -0.88088 
2.575 448.0 76.047 13.988 17.891 -0.14411 -0.88314 
2.600 448.0 69.128 13.746 24.548 -0.19179 -0.88707 
2.625 438.0 70.507 13.493 31.161 -0.23480 -0.89112 
2.650 438.0 75.625 13.159 37.551 -0.27021 -0.89634 
2.675 438.0 64.419 12.845 43.668 -0.29933 -0.90115 
2.700 447.0 66.772 12.365 50.295 -0.32186 -0.90829 
2.725 447.0 60.174 11.825 56.933 -0.33618 -0.91601 
2.750 447.0 61.347 11.202 63.896 -0.34227 -0.92451 
2.775 463.0 67.664 10.506 70.859 -0.33875 -0.93350 
2.800 463.0 63.130 9.713 78.367 -0.32574 -0.94308 
2.825 463.0 60.609 8.782 87.569 -0.30149 -0.95338 
2.850 476.0 69.116 7.703 90.000 -0.26687 -0.96406 
2.875 476.0 65.452 6.567 82.811 -0.22544 -0.97384 
2.900 476.0 63.698 5.484 70.478 -0.17933 -0.98173 
2.925 476.0 62.940 4.269 63.166 -0.13246 -0.98892 
2.950 476.0 64.495 3.007 52.659 -0.08330 -0.99450 
2.975 476.0 63.278 1.726 42.081 -0.04036 -0.99818 
3.000 476.0 64.691 0.854 7.187 -0.00373 -0.99956 
3.025 476.0 66.039 0.000 180.000 0.02216 -1.00000 
3.050 476.0 67.174 1.724 319.801 0.03883 -0.99819 
3.075 476.0 68.914 2.624 328.848 0.04732 -0.99581 
3.100 458.0 70.531 3.482 336.264 0.04880 -0.99262 
3.125 458.0 73.723 4.343 343.205 0.04364 -0.98853 
3.150 458.0 74.607 5.090 349.102 0.03341 -0.98426 
3.175 458.0 75.482 5.837 354.696 0.01870 -0.97932 
3.200 458.0 75.382 6.349 359.688 0.00120 -0.97554 
3.225 458.0 76.438 6.833 4.235 -0.01745 -0.97169 
3.250 458.0 76.939 7.182 8.791 -0.03792 -0.96873 
3.275 458.0 76.485 7.583 13.524 -0.06118 -0.96517 
3.300 458.0 74.711 7.791 18.198 -0.08388 -0.96325 
3.325 458.0 70.834 8.038 22.607 -0.10646 -0.96089 
3.350 458.0 67.537 8.098 27.142 -0.12725 -0.96031 
3.375 458.0 68.504 8.174 31.003 -0.14498 -0.95957 
3.400 458.0 70.336 8.096 34.864 -0.15940 -0.96033 
3.425 458.0 70.407 7.984 38.242 -0.17028 -0.96142 
3.450 458.0 69.408 7.838 41.279 -0.17827 -0.96280 
3.475 458.0 68.581 7.696 43.822 -0.18378 -0.96413 
3.500 458.0 66.159 7.511 46.148 -0.18690 -0.96583 
3.525 458.0 63.849 7.321 47.801 -0.18727 -0.96752 
