## SPECTRUM TYPE:
Spectroscopic

## DATE:
11/9/2011

## COMMENTS:

## NUMBER OF SPECTRUM:
5

## ELLIPSOMETRIC CONFIGURATION:
+45.00 øModulator
+45.00 øAnalyser

## UNIT:
eV


# SPECTRUM:
1

# START TIME:
18:08:03

# END TIME:
18:19:43

# THETA ANGLE:
0.00 ø

# INCIDENCE ANGLE:
55.00 ø

# ACCUMULATION NUMBER:
1

# ELLIPSOMETRIC CONFIGURATION:
+45.00 øModulator
+45.00 øAnalyser

# INTEGRATION TIME:
500 ms

# FIRST POINT:
0.6000 eV

# LAST POINT:
6.5000 eV

# INCREMENT:
0.0250 eV

# NUMBER OF POINTS:
237

# DATA:
eV Hv S0 Psi Delta Is Ic 
0.600 1797.1 61.854 27.937 331.187 -0.39896 0.56100 
0.625 1600.2 73.336 28.836 331.949 -0.39737 0.53477 
0.650 1498.6 70.189 28.193 331.521 -0.39709 0.55361 
0.675 1498.6 67.138 29.185 333.003 -0.38652 0.52443 
0.700 1397.0 77.653 29.016 335.305 -0.35443 0.52944 
0.725 1295.4 75.515 28.969 337.654 -0.32221 0.53083 
0.750 1295.4 79.535 29.419 340.901 -0.28000 0.51745 
0.775 1193.8 77.992 29.356 344.139 -0.23355 0.51935 
0.800 793.8 71.047 29.333 347.565 -0.18393 0.52003 
0.825 1092.2 77.016 29.210 351.178 -0.13066 0.52368 
0.850 1092.2 74.262 29.441 355.011 -0.07445 0.51681 
0.875 793.8 76.990 29.669 358.947 -0.01582 0.50996 
0.900 895.4 71.707 29.581 2.864 0.04290 0.51261 
0.925 997.0 71.657 29.512 6.808 0.10163 0.51469 
0.950 997.0 63.193 29.621 10.643 0.15870 0.51140 
0.975 800.1 74.096 29.584 14.481 0.21472 0.51252 
1.000 997.0 61.777 29.306 18.191 0.26649 0.52085 
1.025 997.0 64.378 29.271 21.833 0.31725 0.52188 
1.050 698.5 66.068 29.105 25.207 0.36200 0.52681 
1.075 1098.6 75.715 28.968 28.344 0.40234 0.53086 
1.100 1098.6 78.281 28.915 31.551 0.44293 0.53242 
1.125 1098.6 72.140 28.446 35.049 0.48104 0.54622 
1.150 1098.6 77.907 28.585 38.479 0.52285 0.54215 
1.175 1098.6 63.766 28.273 45.091 0.59089 0.55127 
1.200 1498.6 73.439 28.435 57.922 0.70958 0.54653 
1.225 1301.8 74.497 30.081 72.183 0.82584 0.49754 
1.250 1003.3 78.717 33.193 73.957 0.88058 0.40058 
1.275 2000.3 63.866 37.449 57.713 0.81619 0.26054 
1.300 2902.0 60.824 42.864 29.193 0.48640 0.07448 
1.325 3898.9 56.926 45.275 357.570 -0.04239 -0.00961 
1.350 2298.7 78.784 42.661 318.527 -0.66006 0.08155 
1.375 2298.7 64.361 38.069 294.864 -0.88088 0.23957 
1.400 1797.1 80.096 33.072 274.595 -0.91162 0.40445 
1.425 3994.2 42.399 30.690 284.985 -0.84796 0.47900 
1.450 3994.2 23.636 28.661 294.708 -0.76467 0.53990 
1.475 749.0 79.872 27.254 305.815 -0.66023 0.58060 
1.500 544.0 67.531 26.457 309.789 -0.61299 0.60300 
1.525 636.0 72.775 26.154 317.527 -0.53432 0.61143 
1.550 563.0 65.170 25.970 323.393 -0.46952 0.61650 
1.575 597.0 65.065 26.020 329.929 -0.39506 0.61511 
1.600 597.0 73.974 25.762 335.408 -0.32579 0.62218 
1.625 534.0 72.702 25.918 340.851 -0.25791 0.61791 
1.650 534.0 58.891 26.177 346.523 -0.18454 0.61078 
1.675 534.0 72.316 26.204 351.789 -0.11316 0.61003 
1.700 519.0 69.022 26.028 357.114 -0.03970 0.61490 
1.725 510.0 68.417 26.065 2.229 0.03070 0.61386 
1.750 500.0 68.025 25.960 7.397 0.10134 0.61677 
1.775 500.0 76.495 25.846 12.636 0.17166 0.61989 
1.800 481.0 72.252 25.452 18.128 0.24148 0.63062 
1.825 481.0 75.145 25.250 23.382 0.30623 0.63606 
1.850 481.0 78.348 24.966 28.954 0.37048 0.64370 
1.875 473.0 71.122 24.478 34.633 0.42864 0.65663 
1.900 473.0 73.735 24.137 40.677 0.48646 0.66557 
1.925 473.0 73.299 23.638 47.229 0.53928 0.67846 
1.950 473.0 71.020 23.151 54.365 0.58760 0.69087 
1.975 473.0 66.834 22.824 62.225 0.63268 0.69906 
2.000 473.0 60.726 22.181 72.997 0.66862 0.71494 
2.025 491.0 66.933 21.819 84.728 0.68719 0.72371 
2.050 507.0 67.457 21.522 78.586 0.66907 0.73082 
2.075 507.0 62.704 21.038 58.341 0.57040 0.74225 
2.100 521.0 67.123 20.260 33.037 0.35421 0.76018 
2.125 521.0 63.893 19.361 3.321 0.03624 0.78019 
2.150 521.0 69.152 18.430 331.367 -0.28745 0.80011 
2.175 509.0 68.631 17.929 302.215 -0.49561 0.81047 
2.200 493.0 68.442 17.900 280.305 -0.57554 0.81105 
2.225 478.0 68.752 18.120 282.372 -0.57745 0.80654 
2.250 465.0 69.274 18.536 296.414 -0.53989 0.79788 
2.275 454.0 70.130 18.937 307.317 -0.48826 0.78935 
2.300 445.0 70.446 19.385 316.906 -0.42781 0.77968 
2.325 436.0 69.608 19.700 325.186 -0.36237 0.77274 
2.350 436.0 78.815 20.021 332.050 -0.30154 0.76557 
2.375 424.0 69.872 20.311 338.226 -0.24151 0.75902 
2.400 424.0 75.286 20.520 344.002 -0.18095 0.75426 
2.425 414.0 69.989 20.631 349.528 -0.11987 0.75171 
2.450 404.0 67.716 20.719 354.478 -0.06368 0.74968 
2.475 404.0 72.555 20.729 359.123 -0.01013 0.74944 
2.500 386.0 71.853 20.470 3.798 0.04341 0.75540 
2.525 386.0 75.655 20.294 8.199 0.09279 0.75942 
2.550 386.0 71.269 20.092 12.515 0.13982 0.76397 
2.575 386.0 77.741 19.980 16.356 0.18086 0.76649 
2.600 386.0 68.818 19.269 20.691 0.22013 0.78220 
2.625 379.0 70.303 18.834 24.584 0.25423 0.79157 
2.650 379.0 73.958 18.238 28.412 0.28286 0.80411 
2.675 379.0 61.214 17.611 31.917 0.30492 0.81693 
2.700 393.0 69.886 16.696 35.741 0.32148 0.83493 
2.725 393.0 60.867 15.476 39.921 0.33006 0.85759 
2.750 393.0 60.453 14.326 43.244 0.32851 0.87754 
2.775 410.0 68.451 13.104 45.863 0.31694 0.89720 
2.800 410.0 63.700 11.964 46.366 0.29354 0.91406 
2.825 410.0 60.012 10.143 48.552 0.25987 0.93798 
2.850 422.0 67.775 8.617 46.449 0.21472 0.95511 
2.875 422.0 64.707 7.213 40.903 0.16313 0.96847 
2.900 422.0 62.771 6.359 30.075 0.11032 0.97547 
2.925 422.0 63.437 5.798 17.786 0.06141 0.97959 
2.950 422.0 63.401 6.308 4.178 0.01591 0.97586 
2.975 422.0 63.329 7.123 355.538 -0.01914 0.96925 
3.000 422.0 64.068 7.994 350.940 -0.04337 0.96132 
3.025 422.0 65.255 9.193 349.449 -0.05776 0.94895 
3.050 422.0 65.573 10.113 349.679 -0.06194 0.93833 
3.075 422.0 65.936 11.170 350.998 -0.05948 0.92494 
3.100 409.0 70.479 11.888 352.747 -0.05090 0.91513 
3.125 409.0 72.966 12.556 354.983 -0.03711 0.90548 
3.150 409.0 72.153 13.173 357.358 -0.02045 0.89613 
3.175 409.0 70.708 13.650 359.854 -0.00116 0.88862 
3.200 409.0 69.139 14.228 2.248 0.01869 0.87919 
3.225 409.0 68.234 14.490 4.580 0.03869 0.87480 
3.250 409.0 67.153 14.632 7.004 0.05961 0.87238 
3.275 409.0 64.161 14.683 9.715 0.08275 0.87150 
3.300 409.0 61.450 14.953 11.913 0.10292 0.86685 
3.325 420.0 69.157 14.828 14.320 0.12238 0.86901 
3.350 420.0 64.742 14.762 16.669 0.14135 0.87015 
3.375 420.0 63.317 14.560 18.693 0.15597 0.87359 
3.400 420.0 63.317 14.305 20.310 0.16621 0.87789 
3.425 420.0 62.248 14.025 21.780 0.17448 0.88254 
3.450 420.0 59.976 13.566 23.098 0.17890 0.88996 
3.475 429.0 66.670 13.466 23.523 0.18077 0.89154 
3.500 429.0 62.956 13.209 23.954 0.18064 0.89557 
3.525 429.0 60.356 12.854 24.391 0.17914 0.90101 
3.550 440.0 69.272 12.591 24.436 0.17602 0.90495 
3.575 440.0 65.760 12.324 24.369 0.17208 0.90888 
3.600 440.0 63.579 12.239 23.809 0.16727 0.91011 
3.625 440.0 61.464 12.038 23.281 0.16123 0.91301 
3.650 440.0 59.582 11.763 22.930 0.15551 0.91688 
3.675 451.0 70.178 11.831 21.946 0.14999 0.91593 
3.700 451.0 68.440 11.579 21.533 0.14434 0.91942 
3.725 451.0 67.799 11.738 20.649 0.14048 0.91722 
3.750 451.0 66.422 11.779 19.999 0.13669 0.91666 
3.775 451.0 64.537 11.910 19.235 0.13305 0.91482 
3.800 451.0 61.450 11.827 19.115 0.13138 0.91598 
3.825 461.0 68.975 12.060 18.469 0.12945 0.91270 
3.850 461.0 64.868 12.191 18.245 0.12925 0.91081 
3.875 461.0 59.880 12.195 18.182 0.12886 0.91076 
3.900 476.0 69.051 12.351 18.187 0.13044 0.90850 
3.925 476.0 63.653 12.465 18.246 0.13198 0.90682 
3.950 476.0 58.828 12.599 18.350 0.13404 0.90484 
3.975 491.0 69.346 12.658 18.694 0.13705 0.90397 
4.000 491.0 64.888 12.742 18.919 0.13950 0.90271 
4.025 491.0 60.638 12.838 19.163 0.14223 0.90125 
4.050 502.0 67.260 13.035 19.217 0.14465 0.89826 
4.075 502.0 63.082 13.073 19.711 0.14862 0.89768 
4.100 513.0 68.517 13.051 20.097 0.15118 0.89801 
4.125 513.0 62.964 13.182 20.424 0.15496 0.89599 
4.150 523.0 67.593 12.995 21.106 0.15780 0.89886 
4.175 523.0 63.764 13.038 21.522 0.16125 0.89822 
4.200 523.0 60.513 12.939 22.086 0.16411 0.89972 
4.225 534.0 67.749 13.080 22.231 0.16680 0.89757 
4.250 534.0 64.148 13.029 22.622 0.16897 0.89835 
4.275 534.0 60.759 12.938 23.145 0.17154 0.89973 
4.300 510.0 71.112 13.220 22.786 0.17244 0.89540 
4.325 510.0 74.711 13.279 22.994 0.17465 0.89449 
4.350 510.0 76.803 13.398 22.759 0.17440 0.89262 
4.375 510.0 79.560 13.403 23.004 0.17624 0.89253 
4.400 501.0 71.363 13.564 22.839 0.17699 0.88998 
4.425 501.0 72.557 14.012 22.007 0.17607 0.88274 
4.450 501.0 73.357 13.540 23.068 0.17837 0.89037 
4.475 501.0 73.706 13.361 23.281 0.17772 0.89320 
4.500 501.0 73.094 13.620 23.000 0.17885 0.88910 
4.525 501.0 72.287 13.485 23.002 0.17722 0.89125 
4.550 501.0 72.747 13.097 23.931 0.17906 0.89730 
4.575 501.0 71.422 13.530 23.189 0.17913 0.89053 
4.600 501.0 70.333 13.259 23.724 0.17963 0.89479 
4.625 501.0 68.224 13.019 24.167 0.17971 0.89850 
4.650 501.0 67.233 13.248 23.847 0.18037 0.89497 
4.675 501.0 64.258 13.444 23.397 0.17959 0.89189 
4.700 501.0 63.095 13.404 23.731 0.18150 0.89253 
4.725 501.0 61.443 13.207 23.926 0.18041 0.89561 
4.750 511.0 69.332 13.344 24.058 0.18309 0.89347 
4.775 511.0 66.569 13.423 23.685 0.18142 0.89222 
4.800 511.0 63.369 13.524 23.748 0.18313 0.89062 
4.825 521.0 71.008 13.586 23.616 0.18294 0.88964 
4.850 521.0 68.401 13.315 24.443 0.18547 0.89392 
4.875 521.0 65.387 13.962 23.167 0.18423 0.88357 
4.900 521.0 63.093 13.622 23.957 0.18588 0.88906 
4.925 521.0 60.387 13.501 24.243 0.18643 0.89099 
4.950 532.0 69.207 13.313 24.758 0.18769 0.89395 
4.975 532.0 66.998 13.539 24.666 0.18996 0.89039 
5.000 532.0 65.196 13.749 24.082 0.18840 0.88703 
5.025 532.0 63.636 13.733 24.508 0.19132 0.88729 
5.050 532.0 60.004 13.674 24.755 0.19236 0.88824 
5.075 532.0 58.740 13.100 25.915 0.19296 0.89725 
5.100 545.0 67.473 14.045 24.390 0.19444 0.88221 
5.125 545.0 64.598 13.713 24.886 0.19382 0.88761 
5.150 545.0 61.207 13.435 25.737 0.19627 0.89203 
5.175 545.0 58.519 13.433 25.963 0.19784 0.89207 
5.200 560.0 68.857 13.948 24.867 0.19674 0.88380 
5.225 560.0 64.498 13.916 25.267 0.19927 0.88433 
5.250 560.0 62.003 13.354 26.460 0.20026 0.89331 
5.275 560.0 59.688 13.749 26.001 0.20241 0.88703 
5.300 574.0 67.846 13.564 26.234 0.20156 0.88999 
5.325 574.0 65.769 13.849 26.051 0.20414 0.88540 
5.350 574.0 63.328 13.230 27.096 0.20294 0.89525 
5.375 574.0 60.622 13.741 26.378 0.20503 0.88716 
5.400 588.0 70.636 13.573 26.572 0.20409 0.88984 
5.425 588.0 66.877 13.739 26.786 0.20794 0.88718 
5.450 588.0 65.207 13.598 26.852 0.20644 0.88944 
5.475 588.0 62.531 13.658 26.910 0.20770 0.88849 
5.500 588.0 59.439 14.031 26.371 0.20895 0.88244 
5.525 603.0 68.750 13.442 27.552 0.20916 0.89193 
5.550 603.0 65.680 13.576 27.344 0.20962 0.88980 
5.575 603.0 62.371 13.737 27.217 0.21100 0.88722 
5.600 603.0 59.045 13.895 26.941 0.21123 0.88467 
5.625 620.0 69.760 13.467 27.873 0.21177 0.89153 
5.650 620.0 65.552 14.020 27.216 0.21500 0.88262 
5.675 620.0 62.410 13.946 27.222 0.21400 0.88382 
5.700 634.0 68.457 13.997 27.542 0.21704 0.88300 
5.725 634.0 64.843 13.697 28.281 0.21799 0.88787 
5.750 634.0 60.751 13.774 27.778 0.21553 0.88663 
5.775 652.0 69.606 13.890 28.235 0.22050 0.88475 
5.800 652.0 65.053 13.929 27.836 0.21820 0.88410 
5.825 652.0 60.276 13.883 28.190 0.22007 0.88486 
5.850 669.0 66.973 13.775 28.466 0.22045 0.88661 
5.875 669.0 62.437 14.270 27.427 0.22008 0.87848 
5.900 685.0 68.643 14.053 28.936 0.22794 0.88207 
5.925 685.0 63.136 13.717 28.817 0.22207 0.88755 
5.950 701.0 68.107 13.562 29.616 0.22531 0.89003 
5.975 701.0 61.247 13.753 29.608 0.22818 0.88696 
6.000 717.0 66.961 14.187 28.570 0.22727 0.87987 
6.025 717.0 60.577 13.676 30.189 0.23103 0.88821 
6.050 738.0 68.147 13.808 29.783 0.23026 0.88607 
6.075 738.0 63.076 13.724 29.698 0.22837 0.88743 
6.100 754.0 67.774 14.050 29.477 0.23177 0.88213 
6.125 754.0 61.490 14.284 29.188 0.23320 0.87826 
6.150 770.0 65.419 14.472 28.539 0.23121 0.87510 
6.175 770.0 60.514 13.778 29.957 0.23101 0.88656 
6.200 780.0 61.211 13.468 30.271 0.22835 0.89151 
6.225 780.0 57.163 14.685 29.074 0.23833 0.87147 
6.250 780.0 52.726 13.457 30.899 0.23245 0.89169 
6.275 780.0 48.280 13.948 29.605 0.23113 0.88381 
6.300 780.0 43.943 14.518 28.474 0.23140 0.87432 
6.325 780.0 40.664 13.572 30.398 0.23085 0.88986 
6.350 780.0 37.149 14.679 28.795 0.23615 0.87157 
6.375 780.0 33.090 14.972 28.922 0.24140 0.86652 
6.400 780.0 29.661 14.173 28.912 0.22955 0.88009 
6.425 780.0 26.429 14.123 29.607 0.23382 0.88092 
6.450 780.0 23.184 14.113 29.259 0.23117 0.88108 
6.475 780.0 20.230 15.440 26.681 0.23045 0.85825 
6.500 780.0 17.641 14.828 27.585 0.22912 0.86901 

# MINIMA:
0.600 379.0 17.641 5.798 2.229 -0.91162 -0.00961 

# MAXIMA:
6.500 3994.2 80.096 45.275 359.854 0.88058 0.97959 

# PEAKS:

# END SPECTRUM


# SPECTRUM:
2

# START TIME:
18:20:28

# END TIME:
18:31:00

# THETA ANGLE:
0.00 ø

# INCIDENCE ANGLE:
60.00 ø

# ACCUMULATION NUMBER:
1

# ELLIPSOMETRIC CONFIGURATION:
+45.00 øModulator
+45.00 øAnalyser

# INTEGRATION TIME:
500 ms

# FIRST POINT:
0.6000 eV

# LAST POINT:
6.5000 eV

# INCREMENT:
0.0250 eV

# NUMBER OF POINTS:
237

# DATA:
eV Hv S0 Psi Delta Is Ic 
0.600 1797.1 63.507 25.768 324.866 -0.45061 0.62203 
0.625 1600.2 77.169 25.004 322.705 -0.46422 0.64267 
0.650 1498.6 75.163 25.473 322.049 -0.47757 0.63005 
0.675 1498.6 74.064 24.567 320.983 -0.47610 0.65429 
0.700 1301.8 70.848 24.846 325.081 -0.43651 0.64690 
0.725 1200.2 69.194 24.133 326.519 -0.41168 0.66567 
0.750 1200.2 72.137 24.003 330.170 -0.36970 0.66904 
0.775 1098.6 70.375 24.849 335.651 -0.31444 0.64683 
0.800 800.1 79.440 25.356 340.721 -0.25554 0.63323 
0.825 997.0 67.984 25.000 345.497 -0.19184 0.64277 
0.850 997.0 65.442 25.079 350.608 -0.12530 0.64068 
0.875 704.9 61.052 24.388 355.694 -0.05647 0.65900 
0.900 901.7 78.242 24.775 1.038 0.01378 0.64878 
0.925 1003.3 77.915 24.910 6.356 0.08458 0.64519 
0.950 1003.3 68.143 25.150 11.561 0.15420 0.63877 
0.975 806.5 83.871 25.158 16.872 0.22335 0.63854 
1.000 1003.3 67.706 24.911 22.131 0.28783 0.64516 
1.025 1003.3 70.251 25.156 26.805 0.34703 0.63860 
1.050 704.9 76.980 25.149 31.352 0.40030 0.63880 
1.075 1003.3 63.884 25.073 35.812 0.44919 0.64082 
1.100 1003.3 67.571 25.287 39.788 0.49432 0.63509 
1.125 1003.3 62.470 25.314 44.331 0.54020 0.63436 
1.150 1003.3 68.357 25.505 48.885 0.58558 0.62918 
1.175 1104.9 75.409 25.850 56.053 0.65103 0.61977 
1.200 1301.8 65.618 26.835 67.665 0.74518 0.59243 
1.225 1104.9 69.611 28.929 74.710 0.81676 0.53202 
1.250 806.5 69.986 31.977 69.293 0.84041 0.43908 
1.275 1505.0 69.433 35.739 56.691 0.79243 0.31767 
1.300 1701.8 65.017 40.546 38.309 0.61242 0.15484 
1.325 2501.9 63.217 44.180 16.308 0.28069 0.02863 
1.350 1600.2 74.739 44.995 346.330 -0.23633 0.00017 
1.375 2000.3 63.741 42.128 323.142 -0.59682 0.10008 
1.400 1701.8 79.186 37.024 300.874 -0.82524 0.27484 
1.425 3898.9 41.856 33.249 289.921 -0.86218 0.39877 
1.450 4000.5 23.804 29.949 283.549 -0.84106 0.50154 
1.475 780.0 114.941 26.419 285.514 -0.76789 0.60408 
1.500 538.0 65.807 25.179 287.082 -0.73608 0.63799 
1.525 632.0 73.616 23.731 295.487 -0.66511 0.67609 
1.550 567.0 72.558 22.942 303.116 -0.60132 0.69610 
1.575 596.0 68.601 22.694 312.121 -0.52801 0.70231 
1.600 596.0 78.145 22.085 319.745 -0.45027 0.71727 
1.625 528.0 71.901 21.908 327.086 -0.37621 0.72157 
1.650 540.0 67.931 21.553 334.421 -0.29504 0.73010 
1.675 527.0 70.340 21.495 342.085 -0.20975 0.73147 
1.700 514.0 69.118 21.182 349.334 -0.12472 0.73888 
1.725 505.0 69.324 21.099 356.899 -0.03634 0.74083 
1.750 505.0 80.252 21.142 4.154 0.04874 0.73983 
1.775 487.0 68.716 20.905 11.598 0.13403 0.74537 
1.800 473.0 69.976 20.883 19.072 0.21764 0.74588 
1.825 473.0 73.558 20.795 26.560 0.29681 0.74791 
1.850 465.0 70.029 20.739 33.973 0.37012 0.74920 
1.875 465.0 72.798 20.652 41.519 0.43752 0.75122 
1.900 465.0 77.164 20.617 49.305 0.49976 0.75202 
1.925 457.0 69.790 20.648 56.990 0.55342 0.75131 
1.950 457.0 70.224 20.635 65.503 0.60024 0.75160 
1.975 457.0 69.215 20.861 73.775 0.63901 0.74638 
2.000 457.0 66.261 21.078 84.650 0.66822 0.74132 
2.025 467.0 70.071 21.568 84.288 0.68035 0.72972 
2.050 477.0 68.463 22.215 72.514 0.66768 0.71411 
2.075 477.0 67.932 22.900 58.612 0.61201 0.69715 
2.100 477.0 60.243 23.647 41.732 0.48915 0.67824 
2.125 491.0 68.115 23.959 23.279 0.29332 0.67019 
2.150 491.0 66.107 23.520 2.463 0.03145 0.68149 
2.175 491.0 70.344 22.291 340.931 -0.22933 0.71225 
2.200 482.0 69.270 20.756 321.298 -0.41442 0.74882 
2.225 472.0 70.177 19.029 302.933 -0.51739 0.78739 
2.250 461.0 70.700 17.577 286.803 -0.55118 0.81762 
2.275 452.0 71.111 16.555 276.875 -0.54231 0.83763 
2.300 443.0 71.303 15.771 283.804 -0.50803 0.85225 
2.325 434.0 70.536 15.128 295.232 -0.45580 0.86378 
2.350 426.0 68.382 14.810 306.218 -0.39874 0.86933 
2.375 426.0 74.837 14.622 316.065 -0.33897 0.87254 
2.400 417.0 70.044 14.534 325.642 -0.27419 0.87405 
2.425 417.0 76.805 14.456 334.449 -0.20852 0.87537 
2.450 404.0 71.092 14.461 342.616 -0.14450 0.87527 
2.475 404.0 76.085 14.393 350.166 -0.08224 0.87643 
2.500 380.0 72.283 14.187 357.779 -0.01842 0.87987 
2.525 380.0 76.653 14.177 4.970 0.04114 0.88002 
2.550 380.0 72.901 14.131 11.729 0.09625 0.88080 
2.575 372.0 69.065 14.008 18.250 0.14710 0.88282 
2.600 372.0 62.069 13.844 24.763 0.19462 0.88550 
2.625 372.0 73.838 13.660 31.097 0.23705 0.88846 
2.650 372.0 78.612 13.628 36.367 0.27156 0.88896 
2.675 372.0 65.666 13.155 42.539 0.29966 0.89641 
2.700 381.0 69.681 12.891 47.691 0.32165 0.90046 
2.725 381.0 62.679 11.950 56.576 0.33814 0.91425 
2.750 381.0 63.198 11.322 63.014 0.34307 0.92292 
2.775 395.0 69.472 11.030 64.599 0.33928 0.92679 
2.800 395.0 65.010 9.744 78.041 0.32637 0.94271 
2.825 395.0 62.192 9.210 73.171 0.30243 0.94877 
2.850 405.0 68.333 8.098 74.438 0.26869 0.96032 
2.875 405.0 64.390 6.878 72.695 0.22704 0.97131 
2.900 405.0 62.419 6.015 60.653 0.18167 0.97804 
2.925 405.0 60.469 5.552 44.623 0.13528 0.98128 
2.950 405.0 61.147 4.054 37.604 0.08606 0.99000 
2.975 414.0 69.108 3.064 24.244 0.04384 0.99429 
3.000 414.0 69.521 1.205 9.622 0.00703 0.99912 
3.025 414.0 68.876 2.556 348.370 -0.01796 0.99602 
3.050 414.0 68.229 1.909 327.958 -0.03532 0.99778 
3.075 414.0 68.261 3.461 338.790 -0.04360 0.99271 
3.100 401.0 71.745 4.121 341.695 -0.04503 0.98967 
3.125 401.0 73.520 4.694 345.434 -0.04103 0.98660 
3.150 401.0 72.688 5.251 350.472 -0.03017 0.98325 
3.175 401.0 71.393 6.006 355.696 -0.01562 0.97810 
3.200 401.0 70.166 6.709 0.559 0.00226 0.97270 
3.225 401.0 68.876 7.011 4.880 0.02061 0.97020 
3.250 401.0 68.169 7.216 9.526 0.04125 0.96845 
3.275 401.0 66.204 7.629 14.344 0.06519 0.96475 
3.300 401.0 63.073 8.078 18.082 0.08636 0.96051 
3.325 410.0 68.862 8.277 22.492 0.10900 0.95855 
3.350 410.0 64.712 8.179 27.640 0.13065 0.95952 
3.375 410.0 63.795 8.232 31.611 0.14855 0.95900 
3.400 410.0 64.529 8.351 34.481 0.16271 0.95781 
3.425 410.0 63.773 8.348 37.234 0.17383 0.95785 
3.450 410.0 61.598 8.041 41.076 0.18201 0.96087 
3.475 419.0 69.269 7.933 43.104 0.18681 0.96191 
3.500 419.0 66.811 7.907 44.383 0.19060 0.96216 
3.525 419.0 63.085 7.571 47.176 0.19159 0.96528 
3.550 419.0 60.098 7.323 49.013 0.19087 0.96751 
3.575 429.0 68.962 7.290 48.862 0.18958 0.96780 
3.600 429.0 66.256 6.999 50.440 0.18648 0.97030 
3.625 429.0 64.182 6.864 50.212 0.18236 0.97143 
3.650 429.0 62.801 6.577 51.382 0.17782 0.97376 
3.675 429.0 60.364 6.356 51.661 0.17260 0.97549 
3.700 438.0 69.426 6.332 50.194 0.16841 0.97567 
3.725 438.0 67.514 6.400 47.623 0.16367 0.97515 
3.750 438.0 66.073 6.312 46.728 0.15914 0.97582 
3.775 438.0 64.226 6.359 45.126 0.15603 0.97546 
