## SPECTRUM TYPE:
Spectroscopic

## DATE:
1/30/2012

## COMMENTS:

## NUMBER OF SPECTRUM:
5

## ELLIPSOMETRIC CONFIGURATION:
+90.00 øModulator
-45.00 øAnalyser

## UNIT:
eV


# SPECTRUM:
1

# START TIME:
14:22:20

# END TIME:
14:34:21

# THETA ANGLE:
0.00 ø

# INCIDENCE ANGLE:
55.00 ø

# ACCUMULATION NUMBER:
1

# ELLIPSOMETRIC CONFIGURATION:
+90.00 øModulator
-45.00 øAnalyser

# INTEGRATION TIME:
500 ms

# FIRST POINT:
0.6000 eV

# LAST POINT:
6.5000 eV

# INCREMENT:
0.0250 eV

# NUMBER OF POINTS:
237

# DATA:
eV Hv S0 Psi Delta Is Ic
0.6 3898.9 46.587 41.71 167.496 -0.21508 -0.96985 
0.625 3898.9 72.158 41.487 167.033 -0.2227 -0.96718 
0.65 3498.9 77.945 41.407 166.768 -0.2271 -0.9658 
0.675 3200.4 78.561 41.349 166.405 -0.23315 -0.9641 
0.7 2400.3 79.324 41.205 165.922 -0.24111 -0.96147 
0.725 1898.7 79.179 41.038 165.565 -0.24691 -0.95918 
0.75 1701.8 77.494 40.929 165.264 -0.2518 -0.95736 
0.775 1403.4 73.212 40.88 164.908 -0.25769 -0.95554 
0.8 901.7 67.751 40.819 164.589 -0.26292 -0.9538 
0.825 1200.2 69.208 40.573 164.257 -0.26808 -0.95102 
0.85 1200.2 68.968 40.542 163.896 -0.27402 -0.94915 
0.875 800.1 63.921 40.476 163.547 -0.27971 -0.94712 
0.9 997 77.253 40.259 163.188 -0.28528 -0.94418 
0.925 1098.6 74.266 40.363 162.889 -0.29037 -0.94325 
0.95 1098.6 66.611 40.281 162.556 -0.29571 -0.94109 
0.975 800.1 68.53 40.253 162.187 -0.30172 -0.93902 
1 1098.6 70.114 40.068 161.852 -0.30687 -0.93621 
1.025 1098.6 75.477 39.932 161.491 -0.3125 -0.93347 
1.05 698.5 70.942 39.751 161.099 -0.3185 -0.93024 
1.075 1098.6 77.04 39.895 160.857 -0.32273 -0.92975 
1.1 997 68.227 39.591 160.449 -0.3287 -0.9256 
1.125 997 71.089 39.579 160.103 -0.33426 -0.92352 
1.15 895.4 70.176 39.401 159.75 -0.33953 -0.92033 
1.175 895.4 75.788 39.209 159.4 -0.34467 -0.917 
1.2 895.4 60.228 39.418 159.132 -0.34948 -0.91672 
1.225 698.5 72.852 39.167 158.801 -0.35414 -0.91307 
1.25 438.2 62.963 39.139 158.431 -0.35995 -0.91058 
1.275 736.6 65.328 39.136 158.22 -0.3633 -0.90923 
1.3 736.6 72.132 39.07 157.893 -0.3683 -0.9067 
1.325 933.5 80.247 38.875 157.541 -0.37333 -0.90311 
1.35 533.4 65.216 38.677 157.263 -0.37712 -0.89992 
1.375 933.5 71.037 38.53 156.988 -0.381 -0.89704 
1.4 641.4 62.398 38.434 156.632 -0.38627 -0.89397 
1.425 1441.5 63.476 38.377 156.425 -0.38931 -0.89215 
1.45 2641.6 60.816 38.803 156.132 -0.3952 -0.89317 
1.475 664 72.117 38.128 155.73 -0.39927 -0.88551 
1.5 489 56.289 37.942 155.523 -0.40182 -0.88264 
1.525 600 73.99 37.959 155.28 -0.40561 -0.88107 
1.55 541 71.596 37.753 155.106 -0.40754 -0.87822 
1.575 580 65.113 37.575 154.782 -0.41184 -0.87447 
1.6 580 74.737 37.544 154.518 -0.41574 -0.87232 
1.625 530 67.816 37.426 154.277 -0.41894 -0.8696 
1.65 530 63.582 37.296 154.036 -0.42206 -0.86675 
1.675 530 76.362 37.328 153.762 -0.42635 -0.86499 
1.7 514 70.965 37.153 153.576 -0.42842 -0.86214 
1.725 502 69.596 37.031 153.306 -0.43195 -0.85908 
1.75 492 68.64 36.952 153.096 -0.43476 -0.85681 
1.775 483 70.197 36.809 152.841 -0.43794 -0.85362 
1.8 467 70.106 36.689 152.598 -0.441 -0.8507 
1.825 467 76.711 36.644 152.374 -0.44411 -0.84857 
1.85 454 69.581 36.496 152.198 -0.44602 -0.84588 
1.875 454 76.997 36.389 151.966 -0.44892 -0.8431 
1.9 440 69.839 36.35 151.771 -0.4516 -0.84121 
1.925 440 76.564 36.227 151.536 -0.45444 -0.83822 
1.95 429 70.43 36.129 151.361 -0.45648 -0.83591 
1.975 429 78.234 36.011 151.165 -0.45874 -0.83324 
2 418 70.14 35.972 150.98 -0.46122 -0.83139 
2.025 418 73.193 35.809 150.775 -0.46332 -0.82818 
2.05 418 72.861 35.768 150.571 -0.46606 -0.82613 
2.075 406 71.288 35.621 150.344 -0.46851 -0.82286 
2.1 406 75.6 35.578 150.146 -0.4711 -0.82081 
2.125 399 69.971 35.501 149.919 -0.47391 -0.81818 
2.15 399 73.155 35.378 149.734 -0.47585 -0.81543 
2.175 399 76.031 35.365 149.543 -0.4785 -0.81372 
2.2 399 79.205 35.255 149.305 -0.48122 -0.81062 
2.225 390 69.51 35.131 149.086 -0.48356 -0.80753 
2.25 390 72.367 34.965 148.874 -0.48554 -0.80405 
2.275 390 74.315 34.924 148.617 -0.48887 -0.80144 
2.3 390 76.438 34.774 148.396 -0.49101 -0.798 
2.325 383 68.96 34.618 148.186 -0.49292 -0.79458 
2.35 383 70.25 34.548 147.942 -0.49584 -0.79172 
2.375 383 72.066 34.358 147.753 -0.49718 -0.78807 
2.4 383 74.011 34.216 147.553 -0.49896 -0.78479 
2.425 383 78.06 33.953 147.449 -0.49854 -0.78102 
2.45 371 70.698 33.734 147.362 -0.49815 -0.77782 
2.475 371 70.99 33.422 147.438 -0.49486 -0.77491 
2.5 408 66.835 33.206 147.568 -0.4915 -0.77351 
2.525 408 67.914 33.076 147.727 -0.48836 -0.77332 
2.55 408 67.404 32.933 147.92 -0.48468 -0.77325 
2.575 408 72.218 32.894 148.056 -0.48255 -0.77393 
2.6 408 67.714 32.842 148.288 -0.47902 -0.77523 
2.625 399 69.191 32.824 148.359 -0.47793 -0.7756 
2.65 399 72.462 32.792 148.381 -0.47738 -0.77541 
2.675 399 63.765 32.787 148.44 -0.47655 -0.77583 
2.7 407 68.188 32.793 148.457 -0.47636 -0.77603 
2.725 407 64.342 32.751 148.483 -0.47569 -0.77574 
2.75 407 67.792 32.76 148.474 -0.47589 -0.77578 
2.775 407 59.558 32.727 148.425 -0.4763 -0.77496 
2.8 407 58.799 32.698 148.359 -0.47696 -0.77406 
2.825 416 69.195 32.689 148.32 -0.47742 -0.77361 
2.85 416 66.002 32.677 148.256 -0.4782 -0.77293 
2.875 416 64.86 32.641 148.194 -0.47876 -0.77197 
2.9 416 63.89 32.625 148.136 -0.47941 -0.77129 
2.925 416 63.157 32.582 148.007 -0.48082 -0.76967 
2.95 416 63.183 32.517 147.996 -0.48045 -0.76877 
2.975 416 60.147 32.503 147.911 -0.48149 -0.76788 
3 425 68.362 32.449 147.87 -0.48161 -0.76686 
3.025 425 66.059 32.4 147.819 -0.48191 -0.76582 
3.05 425 63.475 32.335 147.785 -0.48185 -0.76471 
3.075 425 61.217 32.299 147.693 -0.48279 -0.76349 
3.1 425 78.341 32.29 147.694 -0.4827 -0.76337 
3.125 425 76.083 32.243 147.674 -0.48259 -0.76261 
3.15 425 72.45 32.159 147.666 -0.48202 -0.76147 
3.175 425 67.91 32.058 147.634 -0.48162 -0.75991 
3.2 425 64.671 32.006 147.624 -0.48132 -0.75915 
3.225 425 61.971 31.925 147.717 -0.47943 -0.75889 
3.25 425 58.785 31.859 147.766 -0.47825 -0.75843 
3.275 438 70.065 31.798 147.931 -0.47555 -0.759 
3.3 438 64.933 31.72 148.104 -0.47262 -0.7594 
3.325 448 69.463 31.672 148.432 -0.46787 -0.76147 
3.35 448 65.687 31.672 148.783 -0.46319 -0.76432 
3.375 448 65.487 31.683 149.151 -0.45836 -0.76743 
3.4 448 65.224 31.793 149.45 -0.45522 -0.77129 
3.425 448 63.983 31.902 149.686 -0.4529 -0.77461 
3.45 448 62.008 32.027 149.926 -0.45061 -0.77816 
3.475 457 69.213 32.218 150.006 -0.45097 -0.7813 
3.5 457 66.003 32.325 150.116 -0.45027 -0.78355 
3.525 457 63.271 32.484 150.219 -0.45004 -0.7864 
3.55 457 61.226 32.571 150.238 -0.45041 -0.78767 
3.575 467 69.417 32.805 150.319 -0.45098 -0.79126 
3.6 467 67.569 32.926 150.361 -0.45125 -0.7931 
3.625 467 66.097 33.152 150.287 -0.45387 -0.7953 
3.65 467 64.793 33.286 150.32 -0.45433 -0.79718 
3.675 467 63.897 33.527 150.25 -0.45694 -0.7995 
3.7 467 63.003 33.74 150.145 -0.45985 -0.80115 
3.725 467 62.602 33.954 149.962 -0.46382 -0.80213 
3.75 467 61.501 34.165 149.803 -0.46743 -0.80321 
3.775 467 59.914 34.392 149.57 -0.47215 -0.80381 
3.8 478 68.623 34.645 149.334 -0.47708 -0.80457 
3.825 478 65.683 34.79 149.019 -0.48241 -0.80346 
3.85 478 61.802 35.003 148.705 -0.48814 -0.803 
3.875 488 66.993 35.284 148.38 -0.49442 -0.80304 
3.9 488 62.502 35.48 147.946 -0.50168 -0.80118 
3.925 498 68.047 35.614 147.474 -0.50909 -0.7983 
3.95 498 64.61 35.949 146.988 -0.51785 -0.79706 
3.975 498 61.388 35.934 146.429 -0.52551 -0.79182 
4 509 68.688 36.27 145.965 -0.53391 -0.79051 
4.025 509 65.898 36.263 145.358 -0.54222 -0.78475 
4.05 509 63.469 36.505 144.821 -0.55099 -0.78169 
4.075 509 60.882 36.516 144.185 -0.55969 -0.77562 
4.1 522 70.315 36.741 143.605 -0.56886 -0.77172 
4.125 522 67.81 36.745 142.82 -0.5794 -0.76389 
4.15 522 65.443 36.918 142.19 -0.58881 -0.75882 
4.175 522 64.846 36.893 141.504 -0.5977 -0.75152 
4.2 522 63.551 37.043 140.656 -0.60967 -0.74372 
4.225 522 63.487 36.977 139.898 -0.61906 -0.7351 
4.25 522 62.673 37.02 139.056 -0.63006 -0.72623 
4.275 522 61.653 36.92 138.24 -0.63969 -0.71647 
4.3 561 67.215 36.86 137.125 -0.65312 -0.70346 
4.325 561 73.02 36.71 136.313 -0.662 -0.69306 
4.35 561 78.665 36.637 135.717 -0.66866 -0.68561 
4.375 548 69.867 36.441 135.048 -0.67522 -0.67634 
4.4 548 74.09 36.28 134.729 -0.67779 -0.67141 
4.425 548 76.878 36.123 134.283 -0.6818 -0.66495 
4.45 548 79.083 35.893 133.798 -0.68562 -0.65744 
4.475 537 70.013 35.813 133.408 -0.68944 -0.65216 
4.5 537 70.887 35.614 133.183 -0.69039 -0.64792 
4.525 537 72.189 35.534 132.774 -0.69433 -0.64238 
4.55 537 72.398 35.445 132.367 -0.69813 -0.63675 
4.575 537 72.174 35.267 132.044 -0.70019 -0.63142 
4.6 537 70.975 35.137 131.704 -0.70277 -0.62624 
4.625 537 69.876 35.057 131.504 -0.70425 -0.62316 
4.65 537 68.678 35.013 131.16 -0.70759 -0.61858 
4.675 537 67.711 34.938 130.785 -0.71094 -0.61334 
4.7 537 65.181 34.843 130.464 -0.71349 -0.60862 
4.725 537 64.524 34.691 130.174 -0.71515 -0.60379 
4.75 537 62.455 34.464 129.829 -0.71661 -0.59767 
4.775 537 60.441 34.44 129.576 -0.71901 -0.59431 
4.8 550 70.486 34.347 129.155 -0.72244 -0.58826 
4.825 550 67.521 34.236 128.81 -0.72487 -0.58301 
4.85 550 65.474 34.056 128.7 -0.72417 -0.58018 
4.875 550 63.038 34.053 128.204 -0.72913 -0.57386 
4.9 550 59.537 33.951 127.981 -0.73031 -0.57019 
4.925 564 70.143 33.842 127.669 -0.73227 -0.56532 
4.95 564 67.744 33.722 127.407 -0.73357 -0.56101 
4.975 564 64.988 33.638 127.061 -0.73605 -0.55588 
5 564 63 33.561 126.757 -0.73816 -0.55135 
5.025 575 69.075 33.42 126.611 -0.73801 -0.54832 
5.05 575 66.155 33.335 126.284 -0.7402 -0.5434 
5.075 575 63.469 33.204 126.021 -0.7412 -0.53892 
5.1 575 59.108 33.025 125.834 -0.74091 -0.53503 
5.125 592 69.63 32.989 125.517 -0.74345 -0.53063 
5.15 592 65.665 32.923 125.294 -0.74474 -0.52719 
5.175 592 61.292 32.818 124.935 -0.7468 -0.52164 
5.2 604 66.753 32.646 124.658 -0.74726 -0.51662 
5.225 604 63.277 32.547 124.518 -0.74732 -0.51397 
5.25 616 68.574 32.564 124.309 -0.7494 -0.51138 
5.275 616 64.492 32.362 124.042 -0.7493 -0.5062 
5.3 628 69.779 32.293 123.648 -0.7519 -0.50047 
5.325 628 65.95 32.125 123.569 -0.75048 -0.49804 
5.35 628 61.61 32.001 123.238 -0.75176 -0.49265 
5.375 643 68.753 31.863 123.12 -0.751 -0.48995 
5.4 643 64.747 31.776 122.99 -0.75098 -0.48751 
5.425 643 60.483 31.645 122.733 -0.75144 -0.48303 
5.45 658 67.431 31.477 122.375 -0.7522 -0.47691 
5.475 658 62.52 31.432 122.561 -0.75005 -0.47895 
5.5 672 68.433 31.332 122.103 -0.7525 -0.4721 
5.525 672 63.523 31.219 122.018 -0.75165 -0.47001 
5.55 685 68.427 31.154 121.692 -0.75342 -0.46518 
5.575 685 62.96 30.816 121.575 -0.74965 -0.46074 
5.6 700 67.777 30.858 121.523 -0.75066 -0.46042 
5.625 700 62.39 30.713 121.22 -0.75102 -0.45519 
5.65 718 69.357 30.646 121.073 -0.75122 -0.45268 
5.675 718 63.66 30.538 120.998 -0.75027 -0.45077 
5.7 736 70.175 30.381 121.04 -0.74765 -0.44994 
5.725 736 64.312 30.194 120.734 -0.74729 -0.4443 
5.75 736 58.733 30.257 120.71 -0.7484 -0.44454 
5.775 760 67.048 30.005 120.54 -0.74597 -0.44011 
5.8 778 71.435 29.786 120.354 -0.74407 -0.43574 
5.825 778 64.998 29.606 119.724 -0.74604 -0.42595 
5.85 780 59.747 29.696 120.416 -0.74222 -0.43573 
5.875 780 53.038 29.163 119.913 -0.73767 -0.4244 
5.9 780 47.33 29.493 120.109 -0.74139 -0.42993 
5.925 780 41.472 29.28 120 -0.73888 -0.42659 
5.95 780 37.303 29.107 120.126 -0.7352 -0.42663 
5.975 780 32.979 28.936 119.646 -0.73601 -0.41889 
6 780 29.899 29.139 119.679 -0.73902 -0.42117 
6.025 780 26.455 29.099 119.576 -0.73914 -0.41948 
6.05 780 23.697 28.702 119.91 -0.73029 -0.4201 
6.075 780 21.42 28.631 119.237 -0.73399 -0.41084 
6.1 780 19.275 28.59 120.003 -0.72777 -0.42023 
6.125 780 17.184 28.526 120.114 -0.72589 -0.42102 
6.15 780 15.541 28.842 120.035 -0.73163 -0.42299 
6.175 780 14.084 28.578 119.441 -0.73165 -0.41295 
6.2 780 12.784 28.364 120.039 -0.72378 -0.41853 
6.225 780 11.725 28.732 121.525 -0.71863 -0.422028 
6.25 780 10.627 28.767 119.908 -0.73135 -0.42067 
6.275 780 9.556 28.189 119.629 -0.72382 -0.41168 
6.3 780 8.705 28.77 120.195 -0.72928 -0.42437 
6.325 780 7.941 28.895 120.048 -0.7324 -0.42366 
6.35 780 7.114 27.581 120.474 -0.734493 -0.41624 
6.375 780 6.306 29.154 120.37 -0.73412 -0.43019 
6.4 780 5.644 28.636 119.823 -0.72984 -0.41837 
6.425 780 5.057 29.094 118.821 -0.74453 -0.40966 
6.45 780 4.477 29.596 119.879 -0.74472 -0.42788 
6.475 780 3.962 29.654 121.325 -0.73458 -0.44707 
6.5 780 3.534 29.506 120.318 -0.74003 -0.43275 

# MINIMA:
0.600 371.0 3.534 27.581 118.821 -0.75342 -0.96985

# MAXIMA:
6.500 3898.9 80.247 41.710 167.496 -0.21508 -0.40966

# PEAKS:

# END SPECTRUM


# SPECTRUM:
2

# START TIME:
14:35:12

# END TIME:
14:45:54

# THETA ANGLE:
0.00 ø

# INCIDENCE ANGLE:
60.00 ø

# ACCUMULATION NUMBER:
1

# ELLIPSOMETRIC CONFIGURATION:
+90.00 øModulator
-45.00 øAnalyser

# INTEGRATION TIME:
500 ms

# FIRST POINT:
0.6000 eV

# LAST POINT:
6.5000 eV

# INCREMENT:
0.0250 eV

# NUMBER OF POINTS:
237

# DATA:
eV Hv S0 Psi Delta Is Ic
0.6 3898.9 57.623 40.642 163.993 -0.27257 -0.95013 
0.625 3397.3 78.923 40.497 163.443 -0.28145 -0.94672 
0.65 2800.4 78.596 40.384 163.127 -0.2865 -0.94456 
0.675 2603.5 78.634 40.243 162.619 -0.29462 -0.94121 
0.7 1905 77.146 40.089 162.002 -0.30446 -0.93712 
0.725 1606.6 78.972 39.906 161.569 -0.31117 -0.93375 
0.75 1505 78.249 39.871 161.157 -0.31781 -0.93128 
0.775 1308.1 75.295 39.694 160.696 -0.32492 -0.92764 
0.8 812.8 63.255 39.644 160.267 -0.33175 -0.92488 
0.825 1111.3 69.475 39.483 159.891 -0.33744 -0.92168 
0.85 1111.3 68.969 39.39 159.456 -0.34422 -0.91851 
0.875 812.8 76.793 39.23 158.959 -0.35178 -0.91445 
0.9 914.4 74.161 39.142 158.554 -0.35801 -0.91137 
0.925 1016 70.398 39.012 158.099 -0.36488 -0.90764 
0.95 1016 62.861 39.042 157.735 -0.37073 -0.9055 
0.975 717.6 61.038 38.806 157.164 -0.37906 -0.90016 
1 1016 65.759 38.83 156.809 -0.3847 -0.89796 
1.025 1016 70.293 38.602 156.332 -0.39147 -0.89314 
1.05 622.3 60.365 38.486 155.853 -0.39854 -0.88901 
1.075 1022.4 72.189 38.475 155.526 -0.40358 -0.88664 
1.1 920.8 63.875 38.33 155.019 -0.41092 -0.88199 
1.125 920.8 65.867 38.275 154.602 -0.41714 -0.87857 
1.15 825.5 62.995 38.109 154.2 -0.42269 -0.8744 
1.175 825.5 67.953 38.004 153.78 -0.42871 -0.87048 
1.2 927.1 70.592 37.961 153.35 -0.43506 -0.86692 
1.225 628.7 62.564 37.838 152.957 -0.44052 -0.86298 
1.25 431.8 64.248 37.744 152.507 -0.44691 -0.85877 
1.275 730.3 69.596 37.546 152.148 -0.45146 -0.85439 
1.3 730.3 77.226 37.381 151.66 -0.45801 -0.8492 
1.325 831.9 65.746 37.222 151.332 -0.46217 -0.84527 
1.35 533.4 70.03 37.102 150.953 -0.4672 -0.84121 
1.375 933.5 77.624 37.042 150.574 -0.47246 -0.8376 
1.4 635 65.885 37.089 150.256 -0.47732 -0.83535 
1.425 1435.1 70.551 36.807 149.836 -0.48206 -0.82947 
1.45 2336.8 60.918 37.32 149.516 -0.48918 -0.83099 
1.475 780 0 0 0 -0.492492 -0.824798 
1.5 485 58.546 36.367 148.784 -0.49492 -0.81668 
1.525 593 75.562 36.242 148.421 -0.49939 -0.81242 
1.55 532 70.985 36.101 148.098 -0.50318 -0.80832 
1.575 572 66.208 35.983 147.759 -0.50727 -0.80427 
1.6 572 75.97 35.92 147.395 -0.512 -0.80044 
1.625 525 70.546 35.707 147.072 -0.51524 -0.79558 
1.65 525 65.569 35.663 146.81 -0.5186 -0.7928 
1.675 516 69.499 35.487 146.427 -0.52278 -0.78767 
1.7 506 69.965 35.416 146.113 -0.52664 -0.78411 
1.725 495 69.976 35.316 145.781 -0.53054 -0.7801 
1.75 495 79.633 35.203 145.495 -0.53368 -0.77635 
1.775 477 70.588 35.044 145.181 -0.53685 -0.77188 
1.8 462 71.402 34.926 144.885 -0.54001 -0.76794 
1.825 462 77.82 34.791 144.597 -0.54293 -0.76389 
1.85 449 70.918 34.653 144.369 -0.54498 -0.76034 
1.875 449 77.602 34.576 144.023 -0.549 -0.75627 
1.9 434 69.017 34.495 143.684 -0.55286 -0.75219 
1.925 434 76.022 34.347 143.442 -0.55492 -0.74835 
1.95 423 69.533 34.187 143.182 -0.5571 -0.74419 
1.975 423 76.903 34.12 142.926 -0.5599 -0.74101 
2 413 70.091 34.023 142.623 -0.56303 -0.73703 
2.025 413 73.131 33.911 142.403 -0.56496 -0.7337 
2.05 413 72.557 33.807 142.091 -0.56811 -0.72953 
2.075 400 69.303 33.731 141.785 -0.57137 -0.72568 
2.1 400 73.998 33.583 141.506 -0.57365 -0.72133 
2.125 400 77.445 33.494 141.206 -0.57666 -0.71738 
2.15 392 69.745 33.325 140.973 -0.57812 -0.71322 
2.175 392 72.607 33.309 140.693 -0.58146 -0.71022 
2.2 392 75.061 33.171 140.406 -0.58377 -0.70582 
2.225 392 78.141 33.075 140.075 -0.58699 -0.70139 
2.25 384 69.605 32.994 139.744 -0.59028 -0.69712 
2.275 384 71.634 32.854 139.425 -0.59286 -0.6923 
2.3 384 72.797 32.79 139.064 -0.5966 -0.68786 
2.325 384 74.789 32.548 138.793 -0.59753 -0.68238 
2.35 384 76.807 32.41 138.49 -0.59978 -0.67768 
2.375 384 78.222 32.19 138.206 -0.60094 -0.67225 
2.4 384 80.024 31.991 137.921 -0.60224 -0.667 
2.425 375 71.296 31.724 137.696 -0.60207 -0.66159 
2.45 367 69.799 31.457 137.597 -0.60039 -0.65743 
2.475 367 69.672 31.252 137.5 -0.59928 -0.654 
2.5 397 67.263 30.861 137.642 -0.59336 -0.65077 
2.525 397 67.749 30.684 137.785 -0.58975 -0.65006 
2.55 397 67.025 30.526 138.027 -0.58523 -0.65057 
2.575 397 71.646 30.463 138.162 -0.58297 -0.65115 
2.6 397 67.336 30.366 138.375 -0.57946 -0.65208 
2.625 389 69.375 30.352 138.47 -0.57822 -0.65287 
2.65 389 72.135 30.331 138.502 -0.57761 -0.65293 
2.675 389 63.422 30.283 138.533 -0.57671 -0.65261 
2.7 397 68.108 30.302 138.526 -0.57701 -0.6528 
2.725 397 64.235 30.256 138.603 -0.57561 -0.65298 
2.75 397 67.303 30.275 138.54 -0.57655 -0.65258 
2.775 397 59.133 30.217 138.484 -0.57652 -0.65127 
2.8 405 67.18 30.212 138.378 -0.57766 -0.65014 
2.825 405 66.942 30.153 138.3 -0.57788 -0.6486 
2.85 405 63.776 30.17 138.201 -0.57919 -0.64781 
2.875 405 62.295 30.119 138.116 -0.57956 -0.64629 
2.9 405 61.179 30.081 137.972 -0.58074 -0.64434 
2.925 405 60.321 30.043 137.891 -0.58121 -0.64303 
2.95 405 60.632 29.986 137.774 -0.58185 -0.64111 
2.975 415 68.336 29.979 137.687 -0.58274 -0.64014 
3 415 66.875 29.908 137.584 -0.58305 -0.63817 
3.025 415 64.159 29.843 137.477 -0.58347 -0.63624 
3.05 415 61.724 29.773 137.375 -0.58376 -0.63428 
3.075 415 59.381 29.73 137.27 -0.58442 -0.63265 
3.1 415 75.283 29.675 137.191 -0.58462 -0.63112 
3.125 415 73.402 29.596 137.109 -0.58456 -0.62927 
3.15 415 69.599 29.515 137.03 -0.58444 -0.62739 
3.175 415 65.759 29.439 136.98 -0.58406 -0.62588 
3.2 415 62.405 29.338 136.954 -0.5831 -0.62429 
3.225 424 69.951 29.241 136.906 -0.5824 -0.62251 
3.25 424 66.661 29.154 136.996 -0.58035 -0.62226 
3.275 424 62.827 29.021 137.117 -0.57737 -0.6217 
3.3 424 58.192 28.92 137.243 -0.57473 -0.62158 
3.325 439 68.356 28.839 137.553 -0.57034 -0.62356 
3.35 439 63.958 28.768 137.937 -0.56525 -0.6264 
3.375 439 63.876 28.74 138.325 -0.56065 -0.6298 
3.4 439 63.336 28.771 138.671 -0.55723 -0.63363 
3.425 439 61.703 28.89 139.035 -0.55465 -0.63883 
3.45 439 60.001 28.955 139.307 -0.55239 -0.64236 
3.475 449 67.979 29.108 139.525 -0.55177 -0.64662 
3.5 449 64.955 29.205 139.721 -0.5507 -0.64985 
3.525 449 61.903 29.306 139.855 -0.55037 -0.65254 
3.55 449 59.594 29.412 139.991 -0.55006 -0.65532 
3.575 460 68.593 29.626 140.157 -0.55062 -0.65987 
3.6 460 66.304 29.729 140.252 -0.5507 -0.6622 
3.625 460 64.53 29.927 140.344 -0.55187 -0.66577 
3.65 460 63.313 30.101 140.43 -0.55279 -0.66892 
3.675 460 62.288 30.276 140.507 -0.55382 -0.672 
3.7 460 61.54 30.511 140.543 -0.55594 -0.67544 
3.725 460 60.637 30.709 140.516 -0.55837 -0.67775 
3.75 460 59.606 30.945 140.502 -0.56103 -0.68063 
3.775 470 67.744 31.159 140.391 -0.56457 -0.68223 
3.8 470 64.825 31.443 140.294 -0.56864 -0.68479 
3.825 470 61.593 31.581 140.132 -0.57198 -0.68485 
3.85 481 68.735 31.955 139.882 -0.57871 -0.68681 
3.875 481 63.602 32.141 139.714 -0.58255 -0.68727 
3.9 481 59.475 32.397 139.31 -0.58989 -0.68604 
3.925 495 68.629 32.691 139.004 -0.59637 -0.68616 
3.95 495 64.9 32.944 138.556 -0.60414 -0.6842 
3.975 495 61.498 33.173 138.207 -0.61045 -0.68292 
4 506 68.72 33.44 137.773 -0.61809 -0.68101 
4.025 506 65.682 33.799 137.259 -0.62747 -0.679 
4.05 506 62.902 33.973 136.682 -0.63585 -0.67432 
4.075 506 60.487 34.165 136.14 -0.64394 -0.67008 
4.1 518 68.505 34.46 135.545 -0.65348 -0.66604 
4.125 518 65.693 34.768 134.87 -0.66398 -0.66098 
