## SPECTRUM TYPE:
Spectroscopic

## DATE:
1/30/2012

## COMMENTS:

## NUMBER OF SPECTRUM:
5

## ELLIPSOMETRIC CONFIGURATION:
+90.00 øModulator
+45.00 øAnalyser

## UNIT:
eV


# SPECTRUM:
1

# START TIME:
15:20:13

# END TIME:
15:31:27

# THETA ANGLE:
0.00 ø

# INCIDENCE ANGLE:
55.00 ø

# ACCUMULATION NUMBER:
1

# ELLIPSOMETRIC CONFIGURATION:
+90.00 øModulator
+45.00 øAnalyser

# INTEGRATION TIME:
500 ms

# FIRST POINT:
0.6000 eV

# LAST POINT:
6.5000 eV

# INCREMENT:
0.0250 eV

# NUMBER OF POINTS:
237

# DATA:
eV Hv S0 Psi Delta Is Ic 
0.600 1003.3 70.762 37.048 167.248 0.21228 0.93801 
0.625 901.7 79.275 36.165 166.855 0.21668 0.92786 
0.650 800.1 70.399 45.000 166.802 0.23026 0.98188 
0.675 800.1 65.534 36.827 166.110 0.23035 0.93152 
0.700 698.5 62.029 45.000 166.077 0.24101 0.97219 
0.725 698.5 71.697 37.829 165.433 0.24368 0.93769 
0.750 698.5 73.980 39.866 165.356 0.24876 0.95202 
0.775 596.9 61.671 39.095 164.895 0.25508 0.94501 
0.800 400.1 61.147 37.614 164.380 0.26035 0.93124 
0.825 596.9 72.912 39.537 164.201 0.26733 0.94478 
0.850 596.9 67.997 38.141 163.772 0.27149 0.93277 
0.875 425.5 64.141 38.580 163.514 0.27668 0.93491 
0.900 527.1 78.781 39.426 163.206 0.28348 0.93929 
0.925 628.7 80.483 37.951 162.860 0.28583 0.92680 
0.950 628.7 68.648 38.304 162.435 0.29359 0.92745 
0.975 438.2 61.985 38.817 162.182 0.29890 0.92995 
1.000 635.0 65.534 38.066 161.729 0.30438 0.92191 
1.025 635.0 67.041 39.406 161.443 0.31220 0.92999 
1.050 438.2 73.522 39.090 161.162 0.31604 0.92637 
1.075 635.0 61.207 39.775 160.875 0.32220 0.92913 
1.100 635.0 67.081 38.925 160.453 0.32708 0.92126 
1.125 635.0 65.282 37.659 159.995 0.33093 0.90898 
1.150 635.0 78.168 38.077 159.729 0.33639 0.91081 
1.175 552.5 60.343 37.955 159.371 0.34171 0.90772 
1.200 654.1 66.700 38.571 159.049 0.34860 0.91047 
1.225 463.6 60.770 38.457 158.786 0.35245 0.90803 
1.250 362.0 75.963 37.621 158.405 0.35590 0.89913 
1.275 558.8 66.802 38.117 158.043 0.36317 0.90083 
1.300 558.8 72.448 38.319 157.864 0.36661 0.90121 
1.325 736.6 80.602 37.415 157.473 0.36977 0.89151 
1.350 438.2 72.713 37.454 157.144 0.37502 0.88970 
1.375 736.6 65.663 37.888 156.952 0.37950 0.89197 
1.400 539.8 68.214 38.027 156.668 0.38438 0.89116 
1.425 1238.3 69.088 38.211 156.371 0.38961 0.89055 
1.450 1835.2 61.566 37.998 156.121 0.39277 0.88723 
1.475 575.0 79.257 37.444 155.813 0.39555 0.88067 
1.500 404.0 43.013 36.777 155.485 0.39796 0.87263 
1.525 519.0 75.527 37.335 155.301 0.40298 0.87619 
1.550 468.0 70.756 37.343 154.979 0.40793 0.87398 
1.575 507.0 66.536 37.011 154.703 0.41080 0.86918 
1.600 507.0 73.785 36.848 154.406 0.41463 0.86560 
1.625 468.0 71.347 36.907 154.210 0.41783 0.86471 
1.650 468.0 63.418 37.183 154.004 0.42209 0.86557 
1.675 468.0 73.647 36.831 153.656 0.42584 0.85996 
1.700 457.0 69.252 36.735 153.444 0.42860 0.85753 
1.725 448.0 68.079 36.541 153.196 0.43143 0.85392 
1.750 448.0 75.323 36.510 152.983 0.43446 0.85203 
1.775 436.0 69.631 36.339 152.759 0.43698 0.84876 
1.800 424.0 70.747 36.506 152.541 0.44099 0.84862 
1.825 424.0 74.845 36.255 152.319 0.44307 0.84461 
1.850 416.0 70.750 36.123 152.094 0.44574 0.84162 
1.875 416.0 75.339 35.977 151.849 0.44859 0.83833 
1.900 406.0 70.306 35.887 151.620 0.45147 0.83567 
1.925 406.0 74.712 35.913 151.463 0.45390 0.83468 
1.950 398.0 69.563 35.840 151.291 0.45601 0.83262 
1.975 398.0 74.441 35.484 151.024 0.45797 0.82700 
2.000 398.0 78.536 35.704 150.885 0.46118 0.82805 
2.025 391.0 70.089 35.657 150.679 0.46389 0.82593 
2.050 391.0 67.728 35.395 150.469 0.46546 0.82164 
2.075 384.0 69.516 35.271 150.226 0.46822 0.81842 
2.100 384.0 72.048 35.162 150.053 0.47004 0.81589 
2.125 384.0 73.728 35.101 149.837 0.47276 0.81349 
2.150 384.0 75.022 35.047 149.654 0.47504 0.81143 
2.175 384.0 76.311 35.010 149.468 0.47744 0.80950 
2.200 384.0 76.763 34.917 149.260 0.47981 0.80681 
2.225 384.0 78.127 34.839 149.022 0.48267 0.80400 
2.250 377.0 69.402 34.711 148.827 0.48460 0.80102 
2.275 377.0 69.761 34.530 148.527 0.48761 0.79655 
2.300 377.0 69.887 34.454 148.292 0.49038 0.79374 
2.325 377.0 70.019 34.389 148.089 0.49275 0.79131 
2.350 377.0 70.305 34.236 147.869 0.49475 0.78775 
2.375 377.0 70.099 34.085 147.669 0.49646 0.78438 
2.400 377.0 70.279 33.906 147.505 0.49744 0.78099 
2.425 377.0 72.194 33.698 147.397 0.49742 0.77771 
2.450 369.0 68.961 33.485 147.307 0.49710 0.77450 
2.475 369.0 67.565 33.276 147.320 0.49535 0.77220 
2.500 355.0 72.026 32.851 147.550 0.48903 0.76912 
2.525 355.0 71.751 32.658 147.732 0.48509 0.76830 
2.550 355.0 70.313 32.528 147.895 0.48190 0.76806 
2.575 355.0 74.149 32.422 148.103 0.47828 0.76848 
2.600 355.0 68.874 32.588 148.253 0.47755 0.77180 
2.625 347.0 69.254 32.451 148.353 0.47515 0.77091 
2.650 347.0 71.292 32.331 148.420 0.47331 0.76996 
2.675 347.0 62.136 32.504 148.470 0.47398 0.77256 
2.700 356.0 67.916 32.407 148.452 0.47347 0.77118 
2.725 356.0 63.458 32.635 148.571 0.47362 0.77503 
2.750 356.0 65.579 32.519 148.460 0.47424 0.77266 
2.775 365.0 68.286 32.391 148.408 0.47394 0.77062 
2.800 365.0 66.740 32.421 148.376 0.47460 0.77073 
2.825 365.0 65.174 32.554 148.383 0.47554 0.77247 
2.850 365.0 61.538 32.529 148.346 0.47585 0.77184 
2.875 365.0 59.366 32.478 148.264 0.47654 0.77052 
2.900 373.0 67.389 32.325 148.084 0.47777 0.76709 
2.925 373.0 65.617 32.381 148.107 0.47790 0.76798 
2.950 373.0 64.635 32.275 147.983 0.47873 0.76562 
2.975 373.0 60.576 32.238 147.963 0.47869 0.76497 
3.000 382.0 69.340 32.230 147.871 0.47986 0.76410 
3.025 382.0 65.667 32.313 147.889 0.48028 0.76531 
3.050 382.0 62.255 32.236 147.859 0.48007 0.76408 
3.075 382.0 58.904 32.094 147.766 0.48016 0.76148 
3.100 382.0 73.880 31.943 147.680 0.48007 0.75881 
3.125 382.0 70.822 32.042 147.687 0.48079 0.76014 
3.150 382.0 66.207 31.943 147.646 0.48052 0.75853 
3.175 382.0 61.705 31.970 147.695 0.48010 0.75929 
3.200 391.0 68.928 31.755 147.655 0.47885 0.75615 
3.225 391.0 65.256 31.725 147.725 0.47767 0.75633 
3.250 391.0 61.279 31.636 147.841 0.47539 0.75612 
3.275 401.0 68.670 31.619 148.021 0.47289 0.75738 
3.300 401.0 62.216 31.506 148.215 0.46937 0.75747 
3.325 413.0 69.684 31.356 148.425 0.46534 0.75715 
3.350 413.0 64.983 31.512 148.853 0.46095 0.76272 
3.375 413.0 64.054 31.598 149.198 0.45705 0.76665 
3.400 413.0 63.436 31.580 149.499 0.45288 0.76879 
3.425 413.0 61.556 31.739 149.806 0.45000 0.77336 
3.450 413.0 59.292 31.932 150.026 0.44852 0.77768 
3.475 423.0 67.112 31.963 150.059 0.44832 0.77835 
3.500 423.0 63.937 32.123 150.167 0.44806 0.78130 
3.525 423.0 60.295 32.263 150.271 0.44768 0.78396 
3.550 434.0 69.465 32.419 150.359 0.44763 0.78667 
3.575 434.0 66.667 32.581 150.385 0.44845 0.78895 
3.600 434.0 64.026 32.688 150.395 0.44909 0.79039 
3.625 434.0 61.692 32.862 150.421 0.44997 0.79277 
3.650 434.0 59.761 33.094 150.408 0.45178 0.79553 
3.675 443.0 67.851 33.331 150.344 0.45431 0.79791 
3.700 443.0 66.330 33.452 150.203 0.45710 0.79823 
3.725 443.0 64.937 33.652 150.106 0.45981 0.79982 
3.750 443.0 63.053 33.869 149.929 0.46372 0.80091 
3.775 443.0 60.921 34.042 149.743 0.46746 0.80135 
3.800 453.0 68.218 34.180 149.464 0.47227 0.80060 
3.825 453.0 64.301 34.509 149.210 0.47796 0.80208 
3.850 453.0 60.093 34.564 148.873 0.48301 0.79985 
3.875 466.0 67.490 34.712 148.475 0.48951 0.79803 
3.900 466.0 62.252 34.856 147.992 0.49715 0.79537 
3.925 477.0 68.376 35.024 147.561 0.50420 0.79331 
3.950 477.0 64.010 35.294 147.105 0.51223 0.79193 
3.975 487.0 69.580 35.325 146.574 0.51975 0.78745 
4.000 487.0 65.427 35.422 146.065 0.52734 0.78373 
4.025 487.0 61.684 35.643 145.480 0.53673 0.78038 
4.050 497.0 67.965 35.651 144.821 0.54572 0.77422 
4.075 497.0 64.264 35.772 144.201 0.55485 0.76936 
4.100 497.0 60.602 35.937 143.609 0.56386 0.76504 
4.125 508.0 67.402 36.131 143.025 0.57287 0.76092 
4.150 508.0 64.127 36.113 142.345 0.58175 0.75391 
4.175 508.0 61.954 36.329 141.549 0.59357 0.74754 
4.200 508.0 60.463 36.365 140.797 0.60357 0.73997 
4.225 519.0 69.192 36.391 139.976 0.61429 0.73146 
4.250 519.0 67.109 36.459 139.174 0.62492 0.72332 
4.275 519.0 64.923 36.284 138.282 0.63490 0.71215 
4.300 491.0 70.426 35.600 137.255 0.64252 0.69520 
4.325 491.0 74.812 35.402 136.571 0.64923 0.68585 
4.350 483.0 69.424 35.215 135.897 0.65574 0.67661 
4.375 483.0 72.133 35.636 135.457 0.66431 0.67499 
4.400 483.0 74.465 34.662 134.729 0.66469 0.65843 
4.425 483.0 75.597 34.630 134.415 0.66800 0.65450 
4.450 483.0 75.988 34.270 133.874 0.67089 0.64502 
4.475 483.0 77.565 34.508 133.616 0.67597 0.64408 
4.500 483.0 76.845 34.321 133.378 0.67692 0.63965 
4.525 483.0 75.770 34.091 132.899 0.68008 0.63195 
4.550 483.0 75.295 34.460 132.701 0.68572 0.63279 
4.575 483.0 72.786 34.116 132.232 0.68764 0.62421 
4.600 483.0 71.426 34.001 132.006 0.68898 0.62048 
4.625 483.0 69.830 33.940 131.655 0.69217 0.61573 
4.650 483.0 67.206 33.715 131.187 0.69493 0.60809 
4.675 483.0 64.449 33.941 131.104 0.69807 0.60905 
4.700 483.0 61.312 33.499 130.547 0.69945 0.59838 
4.725 493.0 68.630 33.441 130.200 0.70246 0.59363 
4.750 493.0 65.631 33.688 130.167 0.70536 0.59538 
4.775 493.0 62.158 33.170 129.559 0.70616 0.58334 
4.800 493.0 58.926 33.171 129.185 0.70997 0.57873 
4.825 504.0 66.009 33.196 129.037 0.71174 0.57711 
4.850 504.0 62.662 33.139 128.828 0.71321 0.57401 
4.875 515.0 69.359 33.230 128.509 0.71738 0.57082 
4.900 515.0 66.060 33.079 128.152 0.71927 0.56503 
4.925 515.0 62.698 32.935 128.017 0.71898 0.56208 
4.950 526.0 69.428 33.038 127.661 0.72363 0.55849 
4.975 526.0 65.553 32.437 127.128 0.72184 0.54648 
5.000 526.0 62.511 32.367 126.773 0.72438 0.54138 
5.025 526.0 58.776 32.106 126.456 0.72421 0.53502 
5.050 542.0 68.870 32.381 126.557 0.72660 0.53877 
5.075 542.0 63.970 32.079 126.083 0.72735 0.53007 
5.100 553.0 71.076 32.175 125.869 0.73049 0.52819 
5.125 553.0 65.950 31.862 125.544 0.72959 0.52126 
5.150 553.0 60.952 31.831 125.345 0.73101 0.51845 
5.175 567.0 67.961 31.653 124.931 0.73246 0.51157 
5.200 567.0 62.729 31.755 125.022 0.73296 0.51364 
5.225 580.0 69.396 31.597 124.573 0.73492 0.50647 
5.250 580.0 64.029 31.348 124.210 0.73484 0.49958 
5.275 591.0 67.946 31.445 124.163 0.73653 0.49986 
5.300 591.0 63.397 31.287 124.001 0.73584 0.49635 
5.325 591.0 58.041 31.255 123.766 0.73746 0.49305 
5.350 609.0 67.769 30.962 123.439 0.73628 0.48620 
5.375 609.0 62.666 31.007 123.287 0.73818 0.48466 
5.400 609.0 58.730 30.922 123.278 0.73709 0.48377 
5.425 628.0 67.906 30.934 122.901 0.74042 0.47901 
5.450 628.0 63.152 30.465 122.382 0.73812 0.46809 
5.475 628.0 58.330 30.399 122.297 0.73786 0.46640 
5.500 646.0 66.124 30.319 122.266 0.73695 0.46526 
5.525 659.0 70.805 30.522 122.392 0.73885 0.46874 
5.550 659.0 64.655 30.134 122.073 0.73583 0.46110 
5.575 659.0 59.387 29.955 121.731 0.73590 0.45506 
5.600 675.0 65.567 29.759 121.706 0.73318 0.45293 
5.625 675.0 59.274 29.962 121.865 0.73495 0.45684 
5.650 695.0 66.687 29.451 121.188 0.73253 0.44342 
5.675 695.0 61.647 29.331 121.034 0.73186 0.44034 
5.700 712.0 66.552 29.340 121.121 0.73133 0.44153 
5.725 726.0 69.558 28.908 120.662 0.72802 0.43161 
5.750 726.0 63.305 28.673 120.367 0.72643 0.42564 
5.775 742.0 66.762 28.773 120.769 0.72505 0.43168 
5.800 757.0 69.100 28.420 120.106 0.72422 0.41992 
5.825 757.0 62.416 28.465 120.758 0.72012 0.42856 
5.850 777.0 66.518 28.225 119.895 0.72250 0.41538 
5.875 777.0 59.643 28.094 120.150 0.71847 0.41732 
5.900 780.0 54.732 28.200 120.843 0.71512 0.42703 
5.925 780.0 48.764 27.782 120.575 0.71008 0.41952 
5.950 780.0 43.164 27.734 119.983 0.71357 0.41170 
5.975 780.0 37.770 27.657 120.781 0.70644 0.42081 
6.000 780.0 34.145 27.354 120.074 0.70634 0.40902 
6.025 780.0 30.021 26.832 119.884 0.69845 0.40136 
6.050 780.0 26.921 26.921 120.650 0.69459 0.41160 
6.075 780.0 24.099 26.172 119.369 0.68994 0.38826 
6.100 780.0 21.851 26.312 120.579 0.68415 0.40426 
6.125 780.0 19.525 26.478 120.320 0.68901 0.40294 
6.150 780.0 17.903 26.188 120.524 0.68227 0.40228 
6.175 780.0 16.061 25.840 120.045 0.67914 0.39281 
6.200 780.0 14.439 25.690 120.163 0.67552 0.39258 
6.225 780.0 13.385 25.181 120.695 0.66220 0.39311 
6.250 780.0 12.130 24.875 120.117 0.66020 0.38296 
6.275 780.0 11.055 25.208 119.789 0.66885 0.38288 
6.300 780.0 9.978 25.011 120.852 0.65786 0.39298 
6.325 780.0 9.184 24.912 120.723 0.65682 0.39035 
6.350 780.0 8.293 24.434 120.879 0.64644 0.38656 
6.375 780.0 7.426 24.265 119.735 0.65064 0.37165 
6.400 780.0 6.683 23.908 120.418 0.63900 0.37516 
6.425 780.0 6.045 23.405 121.095 0.62433 0.37655 
6.450 780.0 5.483 23.168 119.431 0.63004 0.35546 
6.475 780.0 4.833 22.708 119.959 0.61706 0.35567 
6.500 780.0 4.321 22.501 122.644 0.59544 0.38144 

# MINIMA:
0.600 347.0 4.321 22.501 119.369 0.21228 0.35546 

# MAXIMA:
6.500 1835.2 80.602 45.000 167.248 0.74042 0.98188 

# PEAKS:

# END SPECTRUM


# SPECTRUM:
2

# START TIME:
15:32:11

# END TIME:
15:42:37

# THETA ANGLE:
0.00 ø

# INCIDENCE ANGLE:
60.00 ø

# ACCUMULATION NUMBER:
1

# ELLIPSOMETRIC CONFIGURATION:
+90.00 øModulator
+45.00 øAnalyser

# INTEGRATION TIME:
500 ms

# FIRST POINT:
0.6000 eV

# LAST POINT:
6.5000 eV

# INCREMENT:
0.0250 eV

# NUMBER OF POINTS:
237

# DATA:
eV Hv S0 Psi Delta Is Ic 
0.600 1003.3 76.759 44.730 164.096 0.27401 0.96168 
0.625 806.5 66.471 36.648 163.298 0.27527 0.91739 
0.650 806.5 77.173 38.248 162.972 0.28475 0.92972 
0.675 806.5 71.761 45.000 162.801 0.29703 0.95960 
0.700 704.9 67.430 39.430 162.205 0.29986 0.93421 
0.725 704.9 78.949 37.602 161.348 0.30921 0.91606 
0.750 628.7 62.171 36.975 161.039 0.31226 0.90887 
0.775 628.7 74.828 40.943 160.918 0.32364 0.93559 
0.800 431.8 77.783 38.563 160.302 0.32859 0.91781 
0.825 533.4 62.327 38.541 159.836 0.33599 0.91495 
0.850 622.3 79.482 37.726 159.369 0.34104 0.90586 
0.875 425.5 68.356 38.883 158.954 0.35097 0.91209 
0.900 520.7 79.207 38.134 158.525 0.35563 0.90398 
0.925 622.3 81.496 38.083 158.153 0.36133 0.90126 
0.950 622.3 68.944 37.385 157.536 0.36869 0.89166 
0.975 425.5 60.718 37.374 157.055 0.37612 0.88844 
1.000 622.3 64.750 38.138 156.754 0.38340 0.89259 
1.025 622.3 65.155 37.849 156.262 0.39007 0.88702 
1.050 425.5 70.767 37.461 155.895 0.39435 0.88137 
1.075 704.9 81.441 37.618 155.441 0.40190 0.87950 
1.100 603.3 61.702 37.018 154.955 0.40701 0.87104 
1.125 685.8 79.776 37.657 154.604 0.41486 0.87386 
1.150 584.2 66.187 37.031 154.092 0.42014 0.86491 
1.175 584.2 69.373 37.034 153.666 0.42657 0.86179 
1.200 685.8 75.065 36.851 153.168 0.43324 0.85647 
1.225 489.0 69.708 36.678 152.807 0.43785 0.85220 
1.250 330.2 61.864 36.658 152.339 0.44469 0.84842 
1.275 596.9 78.565 36.664 152.007 0.44963 0.84588 
1.300 514.4 61.110 36.610 151.652 0.45460 0.84261 
1.325 711.2 75.837 36.400 151.290 0.45889 0.83784 
1.350 412.8 64.478 37.007 150.991 0.46620 0.84072 
1.375 711.2 62.478 36.743 150.636 0.47013 0.83558 
1.400 514.4 63.505 36.317 150.082 0.47603 0.82723 
1.425 1212.9 69.938 36.801 149.866 0.48160 0.82968 
1.450 1714.5 62.341 36.486 149.555 0.48450 0.82432 
1.475 780.0 0.000 0.000 0.000 0.00000 0.00000 
1.500 425.0 60.461 36.146 148.773 0.49386 0.81460 
1.525 531.0 87.956 35.919 148.349 0.49860 0.80885 
1.550 471.0 73.562 35.779 148.065 0.50180 0.80506 
1.575 508.0 67.148 35.420 147.665 0.50524 0.79813 
1.600 508.0 74.857 35.252 147.259 0.50983 0.79290 
1.625 468.0 71.104 35.559 147.135 0.51347 0.79475 
1.650 468.0 62.536 35.565 146.814 0.51794 0.79192 
1.675 468.0 73.237 35.102 146.301 0.52204 0.78279 
1.700 458.0 70.582 34.985 145.988 0.52553 0.77878 
1.725 449.0 69.648 34.860 145.708 0.52849 0.77496 
1.750 449.0 76.661 34.930 145.400 0.53313 0.77280 
1.775 437.0 71.267 34.774 145.098 0.53611 0.76843 
1.800 424.0 70.384 34.650 144.777 0.53953 0.76417 
1.825 424.0 74.565 34.527 144.510 0.54219 0.76042 
1.850 415.0 69.364 34.397 144.248 0.54472 0.75660 
1.875 415.0 73.921 34.255 143.895 0.54830 0.75178 
1.900 406.0 70.216 34.162 143.648 0.55083 0.74843 
1.925 406.0 75.380 34.053 143.327 0.55417 0.74421 
1.950 397.0 68.886 33.977 143.089 0.55666 0.74111 
1.975 397.0 73.901 33.819 142.811 0.55899 0.73674 
2.000 397.0 78.275 33.879 142.557 0.56273 0.73488 
2.025 390.0 69.511 33.699 142.269 0.56496 0.73015 
2.050 390.0 67.521 33.565 141.982 0.56749 0.72589 
2.075 390.0 79.229 33.490 141.735 0.56998 0.72263 
2.100 382.0 70.546 33.295 141.398 0.57256 0.71717 
2.125 382.0 72.233 33.173 141.128 0.57487 0.71314 
2.150 382.0 73.673 33.140 140.868 0.57780 0.71017 
2.175 382.0 74.766 33.024 140.575 0.58037 0.70593 
2.200 382.0 75.482 32.942 140.312 0.58287 0.70237 
2.225 382.0 76.584 32.836 139.984 0.58591 0.69786 
2.250 382.0 77.892 32.729 139.677 0.58863 0.69353 
2.275 375.0 68.811 32.563 139.291 0.59171 0.68771 
2.300 375.0 68.517 32.464 139.010 0.59412 0.68370 
2.325 375.0 68.924 32.335 138.700 0.59654 0.67903 
2.350 375.0 69.030 32.156 138.384 0.59849 0.67373 
2.375 375.0 68.734 31.961 138.059 0.60032 0.66811 
2.400 375.0 69.182 31.769 137.834 0.60094 0.66355 
2.425 375.0 71.305 31.573 137.625 0.60129 0.65908 
2.450 368.0 70.068 31.313 137.463 0.60036 0.65432 
2.475 368.0 68.721 31.056 137.450 0.59770 0.65113 
2.500 354.0 69.000 30.585 137.680 0.58983 0.64775 
2.525 354.0 68.715 30.379 137.830 0.58578 0.64671 
2.550 354.0 67.465 30.321 138.090 0.58219 0.64862 
2.575 354.0 71.428 30.093 138.247 0.57777 0.64728 
2.600 354.0 66.293 30.210 138.432 0.57703 0.65066 
2.625 354.0 78.357 30.065 138.598 0.57348 0.65044 
2.650 347.0 69.687 29.968 138.553 0.57288 0.64873 
2.675 347.0 60.589 30.017 138.621 0.57267 0.65006 
2.700 357.0 68.165 29.882 138.565 0.57174 0.64770 
2.725 357.0 63.448 29.998 138.620 0.57247 0.64979 
2.750 357.0 65.709 29.982 138.550 0.57307 0.64889 
2.775 365.0 66.927 29.982 138.528 0.57332 0.64866 
2.800 365.0 65.385 30.006 138.485 0.57408 0.64854 
2.825 365.0 64.337 29.947 138.378 0.57462 0.64670 
2.850 365.0 60.398 29.864 138.230 0.57531 0.64412 
2.875 373.0 67.991 29.989 138.178 0.57735 0.64523 
2.900 373.0 65.966 29.822 137.977 0.57764 0.64103 
2.925 373.0 63.914 29.860 137.936 0.57855 0.64111 
2.950 373.0 63.567 29.827 137.850 0.57912 0.63981 
2.975 373.0 59.389 29.704 137.706 0.57928 0.63675 
3.000 383.0 69.401 29.737 137.649 0.58029 0.63660 
3.025 383.0 65.843 29.658 137.539 0.58057 0.63445 
3.050 383.0 62.006 29.601 137.470 0.58065 0.63300 
3.075 392.0 70.404 29.501 137.332 0.58095 0.63029 
3.100 380.0 70.159 29.405 137.226 0.58094 0.62794 
3.125 380.0 67.480 29.514 137.225 0.58228 0.62937 
3.150 380.0 62.849 29.400 137.150 0.58173 0.62710 
3.175 388.0 68.661 29.227 137.037 0.58081 0.62365 
3.200 388.0 64.403 29.135 137.028 0.57975 0.62233 
3.225 388.0 60.910 29.019 137.013 0.57846 0.62061 
3.250 397.0 68.041 28.941 137.077 0.57680 0.62020 
3.275 397.0 63.126 28.862 137.191 0.57456 0.62027 
3.300 406.0 68.354 28.629 137.272 0.57071 0.61787 
3.325 406.0 61.335 28.576 137.593 0.56657 0.62032 
3.350 416.0 68.233 28.609 138.019 0.56236 0.62498 
3.375 416.0 67.352 28.637 138.432 0.55818 0.62941 
3.400 416.0 66.474 28.601 138.767 0.55405 0.63214 
3.425 416.0 64.234 28.658 139.086 0.55122 0.63604 
3.450 416.0 61.878 28.839 139.391 0.55005 0.64154 
3.475 425.0 68.843 28.825 139.554 0.54805 0.64290 
3.500 425.0 65.235 28.984 139.790 0.54731 0.64741 
3.525 425.0 62.005 29.102 139.988 0.54647 0.65097 
3.550 425.0 59.010 29.267 140.130 0.54678 0.65464 
3.575 436.0 68.153 29.372 140.257 0.54655 0.65731 
3.600 436.0 65.632 29.510 140.391 0.54660 0.66052 
3.625 436.0 63.294 29.611 140.459 0.54697 0.66256 
3.650 436.0 61.428 29.838 140.635 0.54748 0.66734 
3.675 436.0 59.937 30.074 140.733 0.54896 0.67148 
3.700 436.0 58.474 30.209 140.689 0.55095 0.67287 
