## SPECTRUM TYPE:
Spectroscopic

## DATE:
1/30/2012

## COMMENTS:

## NUMBER OF SPECTRUM:
5

## ELLIPSOMETRIC CONFIGURATION:
+90.00 øModulator
+45.00 øAnalyser

## UNIT:
eV


# SPECTRUM:
1

# START TIME:
15:20:13

# END TIME:
15:31:27

# THETA ANGLE:
0.00 ø

# INCIDENCE ANGLE:
55.00 ø

# ACCUMULATION NUMBER:
1

# ELLIPSOMETRIC CONFIGURATION:
+90.00 øModulator
+45.00 øAnalyser

# INTEGRATION TIME:
500 ms

# FIRST POINT:
0.6000 eV

# LAST POINT:
6.5000 eV

# INCREMENT:
0.0250 eV

# NUMBER OF POINTS:
237

# DATA:
eV Hv S0 Psi Delta Is Ic
0.6 1003.3 70.762 37.048 167.248 0.21228 0.93801 
0.625 901.7 79.275 36.165 166.855 0.21668 0.92786 
0.65 800.1 70.399 45 166.802 0.23026 0.98188 
0.675 800.1 65.534 36.827 166.11 0.23035 0.93152 
0.7 698.5 62.029 45 166.077 0.24101 0.97219 
0.725 698.5 71.697 37.829 165.433 0.24368 0.93769 
0.75 698.5 73.98 39.866 165.356 0.24876 0.95202 
0.775 596.9 61.671 39.095 164.895 0.25508 0.94501 
0.8 400.1 61.147 37.614 164.38 0.26035 0.93124 
0.825 596.9 72.912 39.537 164.201 0.26733 0.94478 
0.85 596.9 67.997 38.141 163.772 0.27149 0.93277 
0.875 425.5 64.141 38.58 163.514 0.27668 0.93491 
0.9 527.1 78.781 39.426 163.206 0.28348 0.93929 
0.925 628.7 80.483 37.951 162.86 0.28583 0.9268 
0.95 628.7 68.648 38.304 162.435 0.29359 0.92745 
0.975 438.2 61.985 38.817 162.182 0.2989 0.92995 
1 635 65.534 38.066 161.729 0.30438 0.92191 
1.025 635 67.041 39.406 161.443 0.3122 0.92999 
1.05 438.2 73.522 39.09 161.162 0.31604 0.92637 
1.075 635 61.207 39.775 160.875 0.3222 0.92913 
1.1 635 67.081 38.925 160.453 0.32708 0.92126 
1.125 635 65.282 37.659 159.995 0.33093 0.90898 
1.15 635 78.168 38.077 159.729 0.33639 0.91081 
1.175 552.5 60.343 37.955 159.371 0.34171 0.90772 
1.2 654.1 66.7 38.571 159.049 0.3486 0.91047 
1.225 463.6 60.77 38.457 158.786 0.35245 0.90803 
1.25 362 75.963 37.621 158.405 0.3559 0.89913 
1.275 558.8 66.802 38.117 158.043 0.36317 0.90083 
1.3 558.8 72.448 38.319 157.864 0.36661 0.90121 
1.325 736.6 80.602 37.415 157.473 0.36977 0.89151 
1.35 438.2 72.713 37.454 157.144 0.37502 0.8897 
1.375 736.6 65.663 37.888 156.952 0.3795 0.89197 
1.4 539.8 68.214 38.027 156.668 0.38438 0.89116 
1.425 1238.3 69.088 38.211 156.371 0.38961 0.89055 
1.45 1835.2 61.566 37.998 156.121 0.39277 0.88723 
1.475 575 79.257 37.444 155.813 0.39555 0.88067 
1.5 404 43.013 36.777 155.485 0.39796 0.87263 
1.525 519 75.527 37.335 155.301 0.40298 0.87619 
1.55 468 70.756 37.343 154.979 0.40793 0.87398 
1.575 507 66.536 37.011 154.703 0.4108 0.86918 
1.6 507 73.785 36.848 154.406 0.41463 0.8656 
1.625 468 71.347 36.907 154.21 0.41783 0.86471 
1.65 468 63.418 37.183 154.004 0.42209 0.86557 
1.675 468 73.647 36.831 153.656 0.42584 0.85996 
1.7 457 69.252 36.735 153.444 0.4286 0.85753 
1.725 448 68.079 36.541 153.196 0.43143 0.85392 
1.75 448 75.323 36.51 152.983 0.43446 0.85203 
1.775 436 69.631 36.339 152.759 0.43698 0.84876 
1.8 424 70.747 36.506 152.541 0.44099 0.84862 
1.825 424 74.845 36.255 152.319 0.44307 0.84461 
1.85 416 70.75 36.123 152.094 0.44574 0.84162 
1.875 416 75.339 35.977 151.849 0.44859 0.83833 
1.9 406 70.306 35.887 151.62 0.45147 0.83567 
1.925 406 74.712 35.913 151.463 0.4539 0.83468 
1.95 398 69.563 35.84 151.291 0.45601 0.83262 
1.975 398 74.441 35.484 151.024 0.45797 0.827 
2 398 78.536 35.704 150.885 0.46118 0.82805 
2.025 391 70.089 35.657 150.679 0.46389 0.82593 
2.05 391 67.728 35.395 150.469 0.46546 0.82164 
2.075 384 69.516 35.271 150.226 0.46822 0.81842 
2.1 384 72.048 35.162 150.053 0.47004 0.81589 
2.125 384 73.728 35.101 149.837 0.47276 0.81349 
2.15 384 75.022 35.047 149.654 0.47504 0.81143 
2.175 384 76.311 35.01 149.468 0.47744 0.8095 
2.2 384 76.763 34.917 149.26 0.47981 0.80681 
2.225 384 78.127 34.839 149.022 0.48267 0.804 
2.25 377 69.402 34.711 148.827 0.4846 0.80102 
2.275 377 69.761 34.53 148.527 0.48761 0.79655 
2.3 377 69.887 34.454 148.292 0.49038 0.79374 
2.325 377 70.019 34.389 148.089 0.49275 0.79131 
2.35 377 70.305 34.236 147.869 0.49475 0.78775 
2.375 377 70.099 34.085 147.669 0.49646 0.78438 
2.4 377 70.279 33.906 147.505 0.49744 0.78099 
2.425 377 72.194 33.698 147.397 0.49742 0.77771 
2.45 369 68.961 33.485 147.307 0.4971 0.7745 
2.475 369 67.565 33.276 147.32 0.49535 0.7722 
2.5 355 72.026 32.851 147.55 0.48903 0.76912 
2.525 355 71.751 32.658 147.732 0.48509 0.7683 
2.55 355 70.313 32.528 147.895 0.4819 0.76806 
2.575 355 74.149 32.422 148.103 0.47828 0.76848 
2.6 355 68.874 32.588 148.253 0.47755 0.7718 
2.625 347 69.254 32.451 148.353 0.47515 0.77091 
2.65 347 71.292 32.331 148.42 0.47331 0.76996 
2.675 347 62.136 32.504 148.47 0.47398 0.77256 
2.7 356 67.916 32.407 148.452 0.47347 0.77118 
2.725 356 63.458 32.635 148.571 0.47362 0.77503 
2.75 356 65.579 32.519 148.46 0.47424 0.77266 
2.775 365 68.286 32.391 148.408 0.47394 0.77062 
2.8 365 66.74 32.421 148.376 0.4746 0.77073 
2.825 365 65.174 32.554 148.383 0.47554 0.77247 
2.85 365 61.538 32.529 148.346 0.47585 0.77184 
2.875 365 59.366 32.478 148.264 0.47654 0.77052 
2.9 373 67.389 32.325 148.084 0.47777 0.76709 
2.925 373 65.617 32.381 148.107 0.4779 0.76798 
2.95 373 64.635 32.275 147.983 0.47873 0.76562 
2.975 373 60.576 32.238 147.963 0.47869 0.76497 
3 382 69.34 32.23 147.871 0.47986 0.7641 
3.025 382 65.667 32.313 147.889 0.48028 0.76531 
3.05 382 62.255 32.236 147.859 0.48007 0.76408 
3.075 382 58.904 32.094 147.766 0.48016 0.76148 
3.1 382 73.88 31.943 147.68 0.48007 0.75881 
3.125 382 70.822 32.042 147.687 0.48079 0.76014 
3.15 382 66.207 31.943 147.646 0.48052 0.75853 
3.175 382 61.705 31.97 147.695 0.4801 0.75929 
3.2 391 68.928 31.755 147.655 0.47885 0.75615 
3.225 391 65.256 31.725 147.725 0.47767 0.75633 
3.25 391 61.279 31.636 147.841 0.47539 0.75612 
3.275 401 68.67 31.619 148.021 0.47289 0.75738 
3.3 401 62.216 31.506 148.215 0.46937 0.75747 
3.325 413 69.684 31.356 148.425 0.46534 0.75715 
3.35 413 64.983 31.512 148.853 0.46095 0.76272 
3.375 413 64.054 31.598 149.198 0.45705 0.76665 
3.4 413 63.436 31.58 149.499 0.45288 0.76879 
3.425 413 61.556 31.739 149.806 0.45 0.77336 
3.45 413 59.292 31.932 150.026 0.44852 0.77768 
3.475 423 67.112 31.963 150.059 0.44832 0.77835 
3.5 423 63.937 32.123 150.167 0.44806 0.7813 
3.525 423 60.295 32.263 150.271 0.44768 0.78396 
3.55 434 69.465 32.419 150.359 0.44763 0.78667 
3.575 434 66.667 32.581 150.385 0.44845 0.78895 
3.6 434 64.026 32.688 150.395 0.44909 0.79039 
3.625 434 61.692 32.862 150.421 0.44997 0.79277 
3.65 434 59.761 33.094 150.408 0.45178 0.79553 
3.675 443 67.851 33.331 150.344 0.45431 0.79791 
3.7 443 66.33 33.452 150.203 0.4571 0.79823 
3.725 443 64.937 33.652 150.106 0.45981 0.79982 
3.75 443 63.053 33.869 149.929 0.46372 0.80091 
3.775 443 60.921 34.042 149.743 0.46746 0.80135 
3.8 453 68.218 34.18 149.464 0.47227 0.8006 
3.825 453 64.301 34.509 149.21 0.47796 0.80208 
3.85 453 60.093 34.564 148.873 0.48301 0.79985 
3.875 466 67.49 34.712 148.475 0.48951 0.79803 
3.9 466 62.252 34.856 147.992 0.49715 0.79537 
3.925 477 68.376 35.024 147.561 0.5042 0.79331 
3.95 477 64.01 35.294 147.105 0.51223 0.79193 
3.975 487 69.58 35.325 146.574 0.51975 0.78745 
4 487 65.427 35.422 146.065 0.52734 0.78373 
4.025 487 61.684 35.643 145.48 0.53673 0.78038 
4.05 497 67.965 35.651 144.821 0.54572 0.77422 
4.075 497 64.264 35.772 144.201 0.55485 0.76936 
4.1 497 60.602 35.937 143.609 0.56386 0.76504 
4.125 508 67.402 36.131 143.025 0.57287 0.76092 
4.15 508 64.127 36.113 142.345 0.58175 0.75391 
4.175 508 61.954 36.329 141.549 0.59357 0.74754 
4.2 508 60.463 36.365 140.797 0.60357 0.73997 
4.225 519 69.192 36.391 139.976 0.61429 0.73146 
4.25 519 67.109 36.459 139.174 0.62492 0.72332 
4.275 519 64.923 36.284 138.282 0.6349 0.71215 
4.3 491 70.426 35.6 137.255 0.64252 0.6952 
4.325 491 74.812 35.402 136.571 0.64923 0.68585 
4.35 483 69.424 35.215 135.897 0.65574 0.67661 
4.375 483 72.133 35.636 135.457 0.66431 0.67499 
4.4 483 74.465 34.662 134.729 0.66469 0.65843 
4.425 483 75.597 34.63 134.415 0.668 0.6545 
4.45 483 75.988 34.27 133.874 0.67089 0.64502 
4.475 483 77.565 34.508 133.616 0.67597 0.64408 
4.5 483 76.845 34.321 133.378 0.67692 0.63965 
4.525 483 75.77 34.091 132.899 0.68008 0.63195 
4.55 483 75.295 34.46 132.701 0.68572 0.63279 
4.575 483 72.786 34.116 132.232 0.68764 0.62421 
4.6 483 71.426 34.001 132.006 0.68898 0.62048 
4.625 483 69.83 33.94 131.655 0.69217 0.61573 
4.65 483 67.206 33.715 131.187 0.69493 0.60809 
4.675 483 64.449 33.941 131.104 0.69807 0.60905 
4.7 483 61.312 33.499 130.547 0.69945 0.59838 
4.725 493 68.63 33.441 130.2 0.70246 0.59363 
4.75 493 65.631 33.688 130.167 0.70536 0.59538 
4.775 493 62.158 33.17 129.559 0.70616 0.58334 
4.8 493 58.926 33.171 129.185 0.70997 0.57873 
4.825 504 66.009 33.196 129.037 0.71174 0.57711 
4.85 504 62.662 33.139 128.828 0.71321 0.57401 
4.875 515 69.359 33.23 128.509 0.71738 0.57082 
4.9 515 66.06 33.079 128.152 0.71927 0.56503 
4.925 515 62.698 32.935 128.017 0.71898 0.56208 
4.95 526 69.428 33.038 127.661 0.72363 0.55849 
4.975 526 65.553 32.437 127.128 0.72184 0.54648 
5 526 62.511 32.367 126.773 0.72438 0.54138 
5.025 526 58.776 32.106 126.456 0.72421 0.53502 
5.05 542 68.87 32.381 126.557 0.7266 0.53877 
5.075 542 63.97 32.079 126.083 0.72735 0.53007 
5.1 553 71.076 32.175 125.869 0.73049 0.52819 
5.125 553 65.95 31.862 125.544 0.72959 0.52126 
5.15 553 60.952 31.831 125.345 0.73101 0.51845 
5.175 567 67.961 31.653 124.931 0.73246 0.51157 
5.2 567 62.729 31.755 125.022 0.73296 0.51364 
5.225 580 69.396 31.597 124.573 0.73492 0.50647 
5.25 580 64.029 31.348 124.21 0.73484 0.49958 
5.275 591 67.946 31.445 124.163 0.73653 0.49986 
5.3 591 63.397 31.287 124.001 0.73584 0.49635 
5.325 591 58.041 31.255 123.766 0.73746 0.49305 
5.35 609 67.769 30.962 123.439 0.73628 0.4862 
5.375 609 62.666 31.007 123.287 0.73818 0.48466 
5.4 609 58.73 30.922 123.278 0.73709 0.48377 
5.425 628 67.906 30.934 122.901 0.74042 0.47901 
5.45 628 63.152 30.465 122.382 0.73812 0.46809 
5.475 628 58.33 30.399 122.297 0.73786 0.4664 
5.5 646 66.124 30.319 122.266 0.73695 0.46526 
5.525 659 70.805 30.522 122.392 0.73885 0.46874 
5.55 659 64.655 30.134 122.073 0.73583 0.4611 
5.575 659 59.387 29.955 121.731 0.7359 0.45506 
5.6 675 65.567 29.759 121.706 0.73318 0.45293 
5.625 675 59.274 29.962 121.865 0.73495 0.45684 
5.65 695 66.687 29.451 121.188 0.73253 0.44342 
5.675 695 61.647 29.331 121.034 0.73186 0.44034 
5.7 712 66.552 29.34 121.121 0.73133 0.44153 
5.725 726 69.558 28.908 120.662 0.72802 0.43161 
5.75 726 63.305 28.673 120.367 0.72643 0.42564 
5.775 742 66.762 28.773 120.769 0.72505 0.43168 
5.8 757 69.1 28.42 120.106 0.72422 0.41992 
5.825 757 62.416 28.465 120.758 0.72012 0.42856 
5.85 777 66.518 28.225 119.895 0.7225 0.41538 
5.875 777 59.643 28.094 120.15 0.71847 0.41732 
5.9 780 54.732 28.2 120.843 0.71512 0.42703 
5.925 780 48.764 27.782 120.575 0.71008 0.41952 
5.95 780 43.164 27.734 119.983 0.71357 0.4117 
5.975 780 37.77 27.657 120.781 0.70644 0.42081 
6 780 34.145 27.354 120.074 0.70634 0.40902 
6.025 780 30.021 26.832 119.884 0.69845 0.40136 
6.05 780 26.921 26.921 120.65 0.69459 0.4116 
6.075 780 24.099 26.172 119.369 0.68994 0.38826 
6.1 780 21.851 26.312 120.579 0.68415 0.40426 
6.125 780 19.525 26.478 120.32 0.68901 0.40294 
6.15 780 17.903 26.188 120.524 0.68227 0.40228 
6.175 780 16.061 25.84 120.045 0.67914 0.39281 
6.2 780 14.439 25.69 120.163 0.67552 0.39258 
6.225 780 13.385 25.181 120.695 0.6622 0.39311 
6.25 780 12.13 24.875 120.117 0.6602 0.38296 
6.275 780 11.055 25.208 119.789 0.66885 0.38288 
6.3 780 9.978 25.011 120.852 0.65786 0.39298 
6.325 780 9.184 24.912 120.723 0.65682 0.39035 
6.35 780 8.293 24.434 120.879 0.64644 0.38656 
6.375 780 7.426 24.265 119.735 0.65064 0.37165 
6.4 780 6.683 23.908 120.418 0.639 0.37516 
6.425 780 6.045 23.405 121.095 0.62433 0.37655 
6.45 780 5.483 23.168 119.431 0.63004 0.35546 
6.475 780 4.833 22.708 119.959 0.61706 0.35567 
6.5 780 4.321 22.501 122.644 0.59544 0.38144 

# MINIMA:
0.600 347.0 4.321 22.501 119.369 0.21228 0.35546

# MAXIMA:
6.500 1835.2 80.602 45.000 167.248 0.74042 0.98188

# PEAKS:

# END SPECTRUM


# SPECTRUM:
2

# START TIME:
15:32:11

# END TIME:
15:42:37

# THETA ANGLE:
0.00 ø

# INCIDENCE ANGLE:
60.00 ø

# ACCUMULATION NUMBER:
1

# ELLIPSOMETRIC CONFIGURATION:
+90.00 øModulator
+45.00 øAnalyser

# INTEGRATION TIME:
500 ms

# FIRST POINT:
0.6000 eV

# LAST POINT:
6.5000 eV

# INCREMENT:
0.0250 eV

# NUMBER OF POINTS:
237

# DATA:
eV Hv S0 Psi Delta Is Ic
0.6 1003.3 76.759 44.73 164.096 0.27401 0.96168 
0.625 806.5 66.471 36.648 163.298 0.27527 0.91739 
0.65 806.5 77.173 38.248 162.972 0.28475 0.92972 
0.675 806.5 71.761 45 162.801 0.29703 0.9596 
0.7 704.9 67.43 39.43 162.205 0.29986 0.93421 
0.725 704.9 78.949 37.602 161.348 0.30921 0.91606 
0.75 628.7 62.171 36.975 161.039 0.31226 0.90887 
0.775 628.7 74.828 40.943 160.918 0.32364 0.912618 
0.8 431.8 77.783 38.563 160.302 0.32859 0.91781 
0.825 533.4 62.327 38.541 159.836 0.33599 0.91495 
0.85 622.3 79.482 37.726 159.369 0.34104 0.90586 
0.875 425.5 68.356 38.883 158.954 0.35097 0.91209 
0.9 520.7 79.207 38.134 158.525 0.35563 0.90398 
0.925 622.3 81.496 38.083 158.153 0.36133 0.90126 
0.95 622.3 68.944 37.385 157.536 0.36869 0.89166 
0.975 425.5 60.718 37.374 157.055 0.37612 0.88844 
1 622.3 64.75 38.138 156.754 0.3834 0.89259 
1.025 622.3 65.155 37.849 156.262 0.39007 0.88702 
1.05 425.5 70.767 37.461 155.895 0.39435 0.88137 
1.075 704.9 81.441 37.618 155.441 0.4019 0.8795 
1.1 603.3 61.702 37.018 154.955 0.40701 0.87104 
1.125 685.8 79.776 37.657 154.604 0.41486 0.87386 
1.15 584.2 66.187 37.031 154.092 0.42014 0.86491 
1.175 584.2 69.373 37.034 153.666 0.42657 0.86179 
1.2 685.8 75.065 36.851 153.168 0.43324 0.85647 
1.225 489 69.708 36.678 152.807 0.43785 0.8522 
1.25 330.2 61.864 36.658 152.339 0.44469 0.84842 
1.275 596.9 78.565 36.664 152.007 0.44963 0.84588 
1.3 514.4 61.11 36.61 151.652 0.4546 0.84261 
1.325 711.2 75.837 36.4 151.29 0.45889 0.83784 
1.35 412.8 64.478 37.007 150.991 0.4662 0.84072 
1.375 711.2 62.478 36.743 150.636 0.47013 0.83558 
1.4 514.4 63.505 36.317 150.082 0.47603 0.82723 
1.425 1212.9 69.938 36.801 149.866 0.4816 0.82968 
1.45 1714.5 62.341 36.486 149.555 0.4845 0.82432 
1.475 780 0 0 0 0.488873 0.819525 
1.5 425 60.461 36.146 148.773 0.49386 0.8146 
1.525 531 87.956 35.919 148.349 0.4986 0.80885 
1.55 471 73.562 35.779 148.065 0.5018 0.80506 
1.575 508 67.148 35.42 147.665 0.50524 0.79813 
1.6 508 74.857 35.252 147.259 0.50983 0.7929 
1.625 468 71.104 35.559 147.135 0.51347 0.79475 
1.65 468 62.536 35.565 146.814 0.51794 0.79192 
1.675 468 73.237 35.102 146.301 0.52204 0.78279 
1.7 458 70.582 34.985 145.988 0.52553 0.77878 
1.725 449 69.648 34.86 145.708 0.52849 0.77496 
1.75 449 76.661 34.93 145.4 0.53313 0.7728 
1.775 437 71.267 34.774 145.098 0.53611 0.76843 
1.8 424 70.384 34.65 144.777 0.53953 0.76417 
1.825 424 74.565 34.527 144.51 0.54219 0.76042 
1.85 415 69.364 34.397 144.248 0.54472 0.7566 
1.875 415 73.921 34.255 143.895 0.5483 0.75178 
1.9 406 70.216 34.162 143.648 0.55083 0.74843 
1.925 406 75.38 34.053 143.327 0.55417 0.74421 
1.95 397 68.886 33.977 143.089 0.55666 0.74111 
1.975 397 73.901 33.819 142.811 0.55899 0.73674 
2 397 78.275 33.879 142.557 0.56273 0.73488 
2.025 390 69.511 33.699 142.269 0.56496 0.73015 
2.05 390 67.521 33.565 141.982 0.56749 0.72589 
2.075 390 79.229 33.49 141.735 0.56998 0.72263 
2.1 382 70.546 33.295 141.398 0.57256 0.71717 
2.125 382 72.233 33.173 141.128 0.57487 0.71314 
2.15 382 73.673 33.14 140.868 0.5778 0.71017 
2.175 382 74.766 33.024 140.575 0.58037 0.70593 
2.2 382 75.482 32.942 140.312 0.58287 0.70237 
2.225 382 76.584 32.836 139.984 0.58591 0.69786 
2.25 382 77.892 32.729 139.677 0.58863 0.69353 
2.275 375 68.811 32.563 139.291 0.59171 0.68771 
2.3 375 68.517 32.464 139.01 0.59412 0.6837 
2.325 375 68.924 32.335 138.7 0.59654 0.67903 
2.35 375 69.03 32.156 138.384 0.59849 0.67373 
2.375 375 68.734 31.961 138.059 0.60032 0.66811 
2.4 375 69.182 31.769 137.834 0.60094 0.66355 
2.425 375 71.305 31.573 137.625 0.60129 0.65908 
2.45 368 70.068 31.313 137.463 0.60036 0.65432 
2.475 368 68.721 31.056 137.45 0.5977 0.65113 
2.5 354 69 30.585 137.68 0.58983 0.64775 
2.525 354 68.715 30.379 137.83 0.58578 0.64671 
2.55 354 67.465 30.321 138.09 0.58219 0.64862 
2.575 354 71.428 30.093 138.247 0.57777 0.64728 
2.6 354 66.293 30.21 138.432 0.57703 0.65066 
2.625 354 78.357 30.065 138.598 0.57348 0.65044 
2.65 347 69.687 29.968 138.553 0.57288 0.64873 
2.675 347 60.589 30.017 138.621 0.57267 0.65006 
2.7 357 68.165 29.882 138.565 0.57174 0.6477 
2.725 357 63.448 29.998 138.62 0.57247 0.64979 
2.75 357 65.709 29.982 138.55 0.57307 0.64889 
2.775 365 66.927 29.982 138.528 0.57332 0.64866 
2.8 365 65.385 30.006 138.485 0.57408 0.64854 
2.825 365 64.337 29.947 138.378 0.57462 0.6467 
2.85 365 60.398 29.864 138.23 0.57531 0.64412 
2.875 373 67.991 29.989 138.178 0.57735 0.64523 
2.9 373 65.966 29.822 137.977 0.57764 0.64103 
2.925 373 63.914 29.86 137.936 0.57855 0.64111 
2.95 373 63.567 29.827 137.85 0.57912 0.63981 
2.975 373 59.389 29.704 137.706 0.57928 0.63675 
3 383 69.401 29.737 137.649 0.58029 0.6366 
3.025 383 65.843 29.658 137.539 0.58057 0.63445 
3.05 383 62.006 29.601 137.47 0.58065 0.633 
3.075 392 70.404 29.501 137.332 0.58095 0.63029 
3.1 380 70.159 29.405 137.226 0.58094 0.62794 
3.125 380 67.48 29.514 137.225 0.58228 0.62937 
3.15 380 62.849 29.4 137.15 0.58173 0.6271 
3.175 388 68.661 29.227 137.037 0.58081 0.62365 
3.2 388 64.403 29.135 137.028 0.57975 0.62233 
3.225 388 60.91 29.019 137.013 0.57846 0.62061 
3.25 397 68.041 28.941 137.077 0.5768 0.6202 
3.275 397 63.126 28.862 137.191 0.57456 0.62027 
3.3 406 68.354 28.629 137.272 0.57071 0.61787 
3.325 406 61.335 28.576 137.593 0.56657 0.62032 
3.35 416 68.233 28.609 138.019 0.56236 0.62498 
3.375 416 67.352 28.637 138.432 0.55818 0.62941 
3.4 416 66.474 28.601 138.767 0.55405 0.63214 
3.425 416 64.234 28.658 139.086 0.55122 0.63604 
3.45 416 61.878 28.839 139.391 0.55005 0.64154 
3.475 425 68.843 28.825 139.554 0.54805 0.6429 
3.5 425 65.235 28.984 139.79 0.54731 0.64741 
3.525 425 62.005 29.102 139.988 0.54647 0.65097 
3.55 425 59.01 29.267 140.13 0.54678 0.65464 
3.575 436 68.153 29.372 140.257 0.54655 0.65731 
3.6 436 65.632 29.51 140.391 0.5466 0.66052 
3.625 436 63.294 29.611 140.459 0.54697 0.66256 
3.65 436 61.428 29.838 140.635 0.54748 0.66734 
3.675 436 59.937 30.074 140.733 0.54896 0.67148 
3.7 436 58.474 30.209 140.689 0.55095 0.67287 
3.725 447 68.878 30.404 140.646 0.55357 0.67504 
3.75 447 66.62 30.625 140.623 0.55621 0.6777 
3.775 447 64.178 30.865 140.584 0.55921 0.68041 
3.8 447 61.367 31.039 140.408 0.56311 0.68089 
3.825 458 69.375 31.258 140.234 0.56747 0.68191 
3.85 458 64.911 31.374 139.987 0.5716 0.68089 
3.875 458 59.201 31.738 139.778 0.57779 0.68319 
3.9 472 67.867 31.953 139.47 0.58361 0.68259 
3.925 472 62.494 32.227 139.11 0.59061 0.68206 
3.95 483 69.474 32.459 138.722 0.59751 0.68065 
3.975 483 64.885 32.716 138.346 0.60447 0.67953 
4 483 60.637 32.927 137.963 0.61103 0.67772 
4.025 494 67.54 33.15 137.4 0.6198 0.67401 
4.05 494 64.117 33.316 136.813 0.62825 0.66931 
4.075 494 60.686 33.508 136.272 0.63637 0.66526 
4.1 507 68.954 33.751 135.612 0.64628 0.66023 
4.125 507 65.268 33.983 135.033 0.65508 0.65585 
4.15 507 62.264 34.261 134.296 0.66604 0.64987 
4.175 507 60.109 34.406 133.503 0.67631 0.64186 
4.2 507 58.843 34.704 132.715 0.68779 0.63502 
4.225 518 67.685 34.878 131.708 0.70043 0.62424 
4.25 518 65.813 35.07 130.756 0.71245 0.61401 
4.275 518 63.929 35.051 129.745 0.723 0.6012 
4.3 493 70.469 34.292 128.234 0.73126 0.57615 
4.325 493 75.838 34.455 127.275 0.74244 0.56508 
4.35 483 68.347 33.77 125.814 0.74941 0.54077 
4.375 483 71.275 34.219 125.341 0.75863 0.53796 
4.4 483 74.234 34.134 124.616 0.76449 0.52771 
4.425 483 75.994 33.849 123.91 0.76784 0.51616 
4.45 483 77.591 33.825 123.282 0.77319 0.50754 
4.475 483 78.327 33.826 122.78 0.77761 0.50074 
4.5 483 78.604 33.597 122.253 0.77959 0.49194 
4.525 483 78.097 33.56 121.757 0.78339 0.48491 
