## SPECTRUM TYPE:
Spectroscopic

## DATE:
1/30/2012

## COMMENTS:

## NUMBER OF SPECTRUM:
5

## ELLIPSOMETRIC CONFIGURATION:
-45.00 øModulator
-45.00 øAnalyser

## UNIT:
eV


# SPECTRUM:
1

# START TIME:
12:30:48

# END TIME:
12:42:10

# THETA ANGLE:
0.00 ø

# INCIDENCE ANGLE:
55.00 ø

# ACCUMULATION NUMBER:
1

# ELLIPSOMETRIC CONFIGURATION:
-45.00 øModulator
-45.00 øAnalyser

# INTEGRATION TIME:
500 ms

# FIRST POINT:
0.6000 eV

# LAST POINT:
6.5000 eV

# INCREMENT:
0.0250 eV

# NUMBER OF POINTS:
237

# DATA:
eV Hv S0 Psi Delta Is Ic 
0.600 1301.8 60.197 41.535 12.468 -0.21431 -0.12066 
0.625 1200.2 71.996 41.331 12.742 -0.21876 -0.12772 
0.650 1098.6 68.001 41.336 13.193 -0.22636 -0.12755 
0.675 1098.6 65.172 40.939 13.421 -0.22978 -0.14128 
0.700 997.0 63.169 41.058 13.930 -0.23846 -0.13717 
0.725 997.0 73.627 40.966 14.304 -0.24462 -0.14034 
0.750 997.0 75.344 40.817 14.547 -0.24850 -0.14550 
0.775 895.4 71.131 40.911 14.974 -0.25575 -0.14226 
0.800 596.9 67.173 40.696 15.287 -0.26068 -0.14967 
0.825 793.8 64.505 40.488 15.613 -0.26581 -0.15685 
0.850 793.8 60.196 40.486 15.909 -0.27072 -0.15690 
0.875 596.9 65.659 40.557 16.376 -0.27855 -0.15447 
0.900 698.5 69.693 40.411 16.629 -0.28251 -0.15951 
0.925 800.1 68.149 40.295 16.938 -0.28742 -0.16349 
0.950 901.7 77.855 40.031 17.310 -0.29308 -0.17258 
0.975 603.3 66.810 40.085 17.704 -0.29964 -0.17073 
1.000 901.7 76.630 40.029 17.996 -0.30432 -0.17264 
1.025 901.7 79.903 39.894 18.269 -0.30852 -0.17728 
1.050 527.1 62.516 39.742 18.653 -0.31446 -0.18253 
1.075 825.5 63.086 39.677 19.009 -0.32012 -0.18473 
1.100 825.5 70.036 39.674 19.361 -0.32581 -0.18483 
1.125 825.5 70.715 39.521 19.769 -0.33206 -0.19010 
1.150 723.9 64.356 39.368 20.018 -0.33572 -0.19533 
1.175 723.9 68.439 39.338 20.394 -0.34169 -0.19635 
1.200 825.5 71.286 39.255 20.687 -0.34618 -0.19921 
1.225 628.7 81.743 39.134 20.939 -0.34991 -0.20332 
1.250 431.8 83.663 39.087 21.325 -0.35594 -0.20495 
1.275 704.9 81.029 38.958 21.616 -0.36022 -0.20934 
1.300 603.3 61.841 38.801 21.970 -0.36540 -0.21469 
1.325 800.1 70.025 38.755 22.243 -0.36958 -0.21628 
1.350 501.7 72.936 38.610 22.495 -0.37312 -0.22122 
1.375 901.7 78.284 38.521 22.869 -0.37872 -0.22422 
1.400 603.3 66.380 38.461 23.163 -0.38315 -0.22628 
1.425 1403.4 69.702 38.232 23.478 -0.38733 -0.23407 
1.450 2305.1 61.079 38.156 23.795 -0.39200 -0.23663 
1.475 643.0 71.818 38.149 23.978 -0.39482 -0.23689 
1.500 485.0 63.496 37.968 24.222 -0.39798 -0.24301 
1.525 589.0 74.604 37.840 24.428 -0.40070 -0.24734 
1.550 537.0 72.722 37.779 24.724 -0.40504 -0.24940 
1.575 573.0 67.285 37.698 25.039 -0.40956 -0.25215 
1.600 573.0 76.886 37.576 25.289 -0.41292 -0.25624 
1.625 527.0 72.774 37.432 25.477 -0.41522 -0.26111 
1.650 527.0 67.463 37.356 25.730 -0.41877 -0.26365 
1.675 516.0 68.674 37.284 25.984 -0.42232 -0.26611 
1.700 507.0 68.980 37.106 26.262 -0.42578 -0.27209 
1.725 496.0 68.627 37.039 26.472 -0.42866 -0.27432 
1.750 496.0 78.183 36.904 26.716 -0.43174 -0.27884 
1.775 480.0 70.522 36.811 26.965 -0.43504 -0.28198 
1.800 464.0 70.351 36.740 27.160 -0.43764 -0.28436 
1.825 464.0 76.590 36.633 27.388 -0.44053 -0.28792 
1.850 452.0 70.035 36.495 27.591 -0.44289 -0.29253 
1.875 452.0 76.745 36.380 27.834 -0.44593 -0.29636 
1.900 438.0 69.743 36.295 28.045 -0.44862 -0.29920 
1.925 438.0 76.421 36.181 28.248 -0.45103 -0.30300 
1.950 428.0 70.955 36.090 28.426 -0.45319 -0.30601 
1.975 428.0 78.619 36.005 28.592 -0.45518 -0.30885 
2.000 417.0 70.161 35.881 28.815 -0.45778 -0.31297 
2.025 417.0 72.729 35.767 29.016 -0.46007 -0.31675 
2.050 417.0 72.419 35.720 29.189 -0.46232 -0.31831 
2.075 405.0 70.463 35.594 29.444 -0.46531 -0.32248 
2.100 405.0 74.524 35.497 29.621 -0.46731 -0.32567 
2.125 405.0 78.058 35.401 29.875 -0.47041 -0.32885 
2.150 397.0 70.049 35.319 30.011 -0.47187 -0.33154 
2.175 397.0 73.055 35.210 30.214 -0.47414 -0.33511 
2.200 397.0 75.475 35.115 30.474 -0.47725 -0.33825 
2.225 397.0 78.287 34.987 30.710 -0.47982 -0.34244 
2.250 389.0 69.041 34.889 30.929 -0.48229 -0.34566 
2.275 389.0 70.991 34.781 31.159 -0.48484 -0.34920 
2.300 389.0 71.905 34.632 31.446 -0.48790 -0.35407 
2.325 389.0 73.651 34.505 31.599 -0.48920 -0.35822 
2.350 389.0 74.941 34.363 31.863 -0.49192 -0.36282 
2.375 389.0 76.162 34.186 32.050 -0.49329 -0.36859 
2.400 389.0 77.492 34.012 32.219 -0.49442 -0.37423 
2.425 382.0 70.556 33.806 32.276 -0.49375 -0.38088 
2.450 375.0 69.725 33.607 32.385 -0.49380 -0.38730 
2.475 375.0 69.357 33.411 32.338 -0.49174 -0.39358 
2.500 391.0 66.512 33.291 32.129 -0.48802 -0.39743 
2.525 391.0 66.679 33.126 31.935 -0.48416 -0.40272 
2.550 391.0 65.641 33.023 31.776 -0.48124 -0.40599 
2.575 391.0 69.722 32.961 31.604 -0.47845 -0.40799 
2.600 391.0 65.159 32.911 31.412 -0.47547 -0.40958 
2.625 391.0 77.810 32.846 31.360 -0.47429 -0.41163 
2.650 384.0 70.621 32.846 31.294 -0.47338 -0.41163 
2.675 384.0 61.624 32.850 31.248 -0.47279 -0.41151 
2.700 395.0 69.736 32.831 31.247 -0.47262 -0.41213 
2.725 395.0 65.549 32.813 31.217 -0.47209 -0.41269 
2.750 395.0 68.794 32.781 31.282 -0.47273 -0.41372 
2.775 395.0 60.185 32.758 31.308 -0.47291 -0.41443 
2.800 403.0 68.201 32.755 31.335 -0.47325 -0.41455 
2.825 403.0 67.583 32.711 31.367 -0.47336 -0.41592 
2.850 403.0 64.275 32.714 31.446 -0.47445 -0.41585 
2.875 403.0 62.444 32.666 31.531 -0.47523 -0.41737 
2.900 403.0 61.111 32.622 31.589 -0.47568 -0.41876 
2.925 403.0 60.069 32.601 31.667 -0.47658 -0.41942 
2.950 403.0 59.627 32.533 31.735 -0.47697 -0.42156 
2.975 414.0 68.383 32.515 31.796 -0.47764 -0.42216 
3.000 414.0 66.050 32.458 31.819 -0.47751 -0.42396 
3.025 414.0 63.603 32.411 31.879 -0.47796 -0.42542 
3.050 414.0 60.789 32.359 31.928 -0.47819 -0.42707 
3.075 423.0 68.404 32.318 32.036 -0.47932 -0.42836 
3.100 412.0 71.090 32.244 32.025 -0.47858 -0.43071 
3.125 412.0 68.859 32.198 32.074 -0.47887 -0.43216 
3.150 412.0 64.751 32.146 32.071 -0.47841 -0.43377 
3.175 412.0 61.089 32.071 32.066 -0.47774 -0.43615 
3.200 421.0 67.764 32.005 32.061 -0.47715 -0.43820 
3.225 421.0 64.444 31.940 31.965 -0.47533 -0.44025 
3.250 421.0 61.337 31.843 31.898 -0.47365 -0.44329 
3.275 431.0 68.684 31.778 31.736 -0.47097 -0.44534 
3.300 431.0 63.177 31.707 31.526 -0.46760 -0.44753 
3.325 442.0 69.227 31.646 31.279 -0.46381 -0.44945 
3.350 442.0 65.014 31.618 30.908 -0.45863 -0.45031 
3.375 442.0 64.491 31.648 30.584 -0.45453 -0.44938 
3.400 442.0 64.032 31.764 30.291 -0.45151 -0.44575 
3.425 442.0 62.391 31.884 30.026 -0.44887 -0.44199 
3.450 442.0 60.533 32.022 29.791 -0.44672 -0.43769 
3.475 452.0 68.710 32.149 29.624 -0.44541 -0.43368 
3.500 452.0 65.670 32.312 29.526 -0.44527 -0.42855 
3.525 452.0 63.026 32.460 29.468 -0.44556 -0.42388 
3.550 452.0 60.183 32.574 29.425 -0.44578 -0.42027 
3.575 462.0 68.531 32.752 29.402 -0.44675 -0.41462 
3.600 462.0 66.334 32.891 29.344 -0.44692 -0.41021 
3.625 462.0 64.759 33.092 29.359 -0.44854 -0.40380 
3.650 462.0 63.200 33.240 29.435 -0.45060 -0.39907 
3.675 462.0 62.181 33.463 29.412 -0.45180 -0.39193 
3.700 462.0 61.302 33.645 29.578 -0.45534 -0.38608 
3.725 462.0 60.470 33.877 29.704 -0.45863 -0.37858 
3.750 471.0 68.269 34.105 29.859 -0.46230 -0.37119 
3.775 471.0 66.609 34.320 30.028 -0.46606 -0.36423 
3.800 471.0 63.604 34.551 30.245 -0.47056 -0.35672 
3.825 471.0 60.795 34.754 30.540 -0.47598 -0.35008 
3.850 483.0 68.730 34.930 30.938 -0.48267 -0.34431 
3.875 483.0 63.897 35.148 31.225 -0.48805 -0.33715 
3.900 494.0 70.005 35.363 31.687 -0.49583 -0.33009 
3.925 494.0 65.398 35.581 32.095 -0.50286 -0.32291 
3.950 494.0 62.108 35.774 32.628 -0.51147 -0.31651 
3.975 505.0 69.246 35.911 33.087 -0.51867 -0.31197 
4.000 505.0 65.400 36.100 33.644 -0.52750 -0.30569 
4.025 505.0 62.308 36.260 34.215 -0.53633 -0.30037 
4.050 505.0 59.822 36.352 34.836 -0.54540 -0.29731 
4.075 517.0 68.270 36.525 35.376 -0.55379 -0.29155 
4.100 517.0 65.094 36.639 35.999 -0.56291 -0.28772 
4.125 517.0 62.214 36.766 36.703 -0.57315 -0.28348 
4.150 517.0 60.010 36.812 37.317 -0.58164 -0.28193 
4.175 517.0 58.698 36.869 38.127 -0.59271 -0.28002 
4.200 529.0 68.750 36.956 38.836 -0.60253 -0.27711 
4.225 529.0 67.725 36.936 39.727 -0.61397 -0.27778 
4.250 529.0 66.709 36.970 40.502 -0.62413 -0.27664 
4.275 529.0 65.072 36.885 41.435 -0.63539 -0.27951 
4.300 529.0 61.736 36.943 42.364 -0.64736 -0.27756 
4.325 529.0 65.831 36.706 42.979 -0.65336 -0.28550 
4.350 529.0 69.655 36.542 43.736 -0.66142 -0.29096 
4.375 529.0 72.854 36.371 44.304 -0.66701 -0.29668 
4.400 529.0 75.222 36.202 44.768 -0.67129 -0.30230 
4.425 529.0 77.160 36.016 45.077 -0.67353 -0.30848 
4.450 529.0 78.573 35.870 45.489 -0.67721 -0.31333 
4.475 519.0 68.646 35.796 45.892 -0.68130 -0.31578 
4.500 519.0 68.903 35.600 46.192 -0.68317 -0.32225 
4.525 519.0 69.393 35.492 46.503 -0.68583 -0.32583 
4.550 519.0 68.339 35.401 46.869 -0.68921 -0.32882 
4.575 519.0 67.982 35.227 47.220 -0.69167 -0.33456 
4.600 519.0 66.047 35.206 47.580 -0.69549 -0.33525 
4.625 519.0 64.388 35.094 47.784 -0.69678 -0.33893 
4.650 519.0 62.772 34.987 48.143 -0.69979 -0.34243 
4.675 530.0 71.944 34.829 48.590 -0.70321 -0.34764 
4.700 530.0 69.079 34.772 48.919 -0.70625 -0.34949 
4.725 530.0 65.978 34.692 49.090 -0.70734 -0.35209 
4.750 530.0 64.385 34.606 49.401 -0.70986 -0.35490 
4.775 530.0 61.490 34.469 49.752 -0.71226 -0.35939 
4.800 544.0 71.513 34.323 50.139 -0.71491 -0.36413 
4.825 544.0 68.001 34.206 50.419 -0.71666 -0.36793 
4.850 544.0 66.092 34.176 50.654 -0.71879 -0.36890 
4.875 544.0 62.410 34.009 50.968 -0.72032 -0.37431 
4.900 557.0 71.660 33.960 51.339 -0.72359 -0.37591 
4.925 557.0 68.961 33.828 51.669 -0.72554 -0.38018 
4.950 557.0 65.861 33.636 52.027 -0.72708 -0.38637 
4.975 557.0 63.116 33.659 52.194 -0.72898 -0.38562 
5.000 570.0 72.321 33.484 52.550 -0.73059 -0.39126 
5.025 570.0 68.368 33.420 52.809 -0.73243 -0.39329 
5.050 570.0 64.492 33.248 53.067 -0.73302 -0.39881 
5.075 570.0 60.632 33.113 53.213 -0.73291 -0.40312 
5.100 584.0 68.651 33.098 53.400 -0.73451 -0.40362 
5.125 584.0 64.238 32.892 53.705 -0.73505 -0.41019 
5.150 584.0 60.405 32.767 53.992 -0.73630 -0.41415 
5.175 599.0 68.015 32.796 54.232 -0.73888 -0.41322 
5.200 599.0 63.431 32.635 54.414 -0.73866 -0.41834 
5.225 612.0 70.060 32.564 54.732 -0.74074 -0.42058 
5.250 612.0 65.665 32.361 54.960 -0.74035 -0.42700 
5.275 612.0 60.862 32.292 55.273 -0.74233 -0.42918 
5.300 625.0 66.285 32.234 55.494 -0.74359 -0.43102 
5.325 625.0 62.578 32.021 55.720 -0.74294 -0.43772 
5.350 640.0 69.998 31.959 55.869 -0.74347 -0.43965 
5.375 640.0 65.245 31.847 56.052 -0.74364 -0.44316 
5.400 640.0 61.224 31.789 56.090 -0.74322 -0.44499 
5.425 658.0 69.929 31.659 56.269 -0.74309 -0.44905 
5.450 658.0 65.390 31.503 56.630 -0.74416 -0.45389 
5.475 658.0 60.728 31.356 56.764 -0.74333 -0.45847 
5.500 673.0 66.860 31.123 57.446 -0.74592 -0.46568 
5.525 673.0 62.610 31.222 57.172 -0.74498 -0.46261 
5.550 686.0 66.011 31.061 57.443 -0.74504 -0.46759 
5.575 686.0 61.161 30.856 57.533 -0.74294 -0.47391 
5.600 686.0 56.452 30.740 57.937 -0.74463 -0.47746 
5.625 709.0 66.093 30.613 57.643 -0.74043 -0.48135 
5.650 709.0 60.674 30.525 58.081 -0.74273 -0.48405 
5.675 728.0 67.825 30.437 57.936 -0.74029 -0.48674 
5.700 728.0 61.359 30.189 58.115 -0.73813 -0.49428 
5.725 744.0 66.325 30.077 58.198 -0.73715 -0.49766 
5.750 744.0 60.314 29.971 58.317 -0.73653 -0.50086 
5.775 766.0 67.395 29.927 58.590 -0.73804 -0.50219 
5.800 766.0 60.511 29.544 58.765 -0.73360 -0.51371 
5.825 780.0 62.555 29.647 58.497 -0.73307 -0.51064 
5.850 780.0 56.174 29.734 58.256 -0.73250 -0.50801 
5.875 780.0 50.487 29.324 57.680 -0.72169 -0.52029 
5.900 780.0 44.885 29.410 58.148 -0.72671 -0.51774 
5.925 780.0 40.451 29.098 59.376 -0.73132 -0.52703 
5.950 780.0 35.266 28.937 59.607 -0.73049 -0.53180 
5.975 780.0 31.984 29.313 57.936 -0.72354 -0.52063 
6.000 780.0 28.651 28.924 59.020 -0.72586 -0.53218 
6.025 780.0 25.606 28.723 58.557 -0.71911 -0.53811 
6.050 780.0 22.896 28.465 59.886 -0.72490 -0.54566 
6.075 780.0 20.639 28.961 58.268 -0.72067 -0.53106 
6.100 780.0 18.639 28.433 58.574 -0.71456 -0.54661 
6.125 780.0 16.711 28.745 58.235 -0.71698 -0.53744 
6.150 780.0 15.225 28.214 57.469 -0.70247 -0.55297 
6.175 780.0 13.847 28.423 57.621 -0.70703 -0.54690 
6.200 780.0 12.568 28.395 58.848 -0.71602 -0.54771 
6.225 780.0 11.490 28.657 57.521 -0.71000 -0.54003 
6.250 780.0 10.625 28.247 58.601 -0.71173 -0.55201 
6.275 780.0 9.569 27.897 58.873 -0.70795 -0.56218 
6.300 780.0 8.688 28.101 60.338 -0.72212 -0.55625 
6.325 780.0 7.852 28.218 58.285 -0.70883 -0.55288 
6.350 780.0 7.057 28.478 58.939 -0.71806 -0.54529 
6.375 780.0 6.298 28.423 55.482 -0.68982 -0.54688 
6.400 780.0 5.682 29.055 56.098 -0.70472 -0.52829 
6.425 780.0 5.025 29.587 54.789 -0.70161 -0.51243 
6.450 780.0 4.499 29.141 56.604 -0.71019 -0.52575 
6.475 780.0 3.998 29.106 54.915 -0.69556 -0.52678 
6.500 780.0 3.539 29.950 57.163 -0.72692 -0.50150 

# MINIMA:
0.600 375.0 3.539 27.897 12.468 -0.74592 -0.56218 

# MAXIMA:
6.500 2305.1 83.663 41.535 60.338 -0.21431 -0.12066 

# PEAKS:

# END SPECTRUM


# SPECTRUM:
2

# START TIME:
12:42:53

# END TIME:
12:53:15

# THETA ANGLE:
0.00 ø

# INCIDENCE ANGLE:
60.00 ø

# ACCUMULATION NUMBER:
1

# ELLIPSOMETRIC CONFIGURATION:
-45.00 øModulator
-45.00 øAnalyser

# INTEGRATION TIME:
500 ms

# FIRST POINT:
0.6000 eV

# LAST POINT:
6.5000 eV

# INCREMENT:
0.0250 eV

# NUMBER OF POINTS:
237

# DATA:
eV Hv S0 Psi Delta Is Ic 
0.600 1301.8 65.211 40.750 16.094 -0.27416 -0.14781 
0.625 1200.2 75.176 40.331 16.391 -0.27845 -0.16226 
0.650 1098.6 69.453 39.993 16.782 -0.28433 -0.17390 
0.675 1098.6 66.766 40.220 17.323 -0.29363 -0.16607 
0.700 997.0 63.694 40.035 17.834 -0.30166 -0.17244 
0.725 997.0 72.876 39.870 18.223 -0.30772 -0.17812 
0.750 997.0 73.745 39.859 18.719 -0.31577 -0.17849 
0.775 895.4 69.017 39.652 19.101 -0.32155 -0.18561 
0.800 596.9 65.402 39.513 19.571 -0.32885 -0.19038 
0.825 895.4 81.615 39.443 20.010 -0.33577 -0.19277 
0.850 895.4 76.545 39.289 20.353 -0.34091 -0.19805 
0.875 596.9 63.171 39.302 20.884 -0.34945 -0.19758 
0.900 698.5 67.092 39.086 21.284 -0.35528 -0.20497 
0.925 800.1 66.259 38.936 21.659 -0.36085 -0.21010 
0.950 901.7 76.913 38.863 22.122 -0.36797 -0.21258 
0.975 603.3 66.567 38.800 22.590 -0.37517 -0.21474 
1.000 901.7 76.740 38.692 22.979 -0.38097 -0.21840 
1.025 806.5 63.370 38.546 23.465 -0.38812 -0.22338 
1.050 527.1 62.742 38.647 23.920 -0.39554 -0.21994 
1.075 825.5 64.586 38.337 24.315 -0.40067 -0.23049 
1.100 825.5 72.227 38.249 24.728 -0.40674 -0.23347 
1.125 825.5 72.992 38.117 25.191 -0.41341 -0.23794 
1.150 723.9 66.299 38.098 25.684 -0.42089 -0.23859 
1.175 723.9 70.686 37.927 26.025 -0.42546 -0.24438 
1.200 825.5 73.738 37.812 26.532 -0.43272 -0.24828 
1.225 552.5 62.467 37.692 26.928 -0.43822 -0.25234 
1.250 387.4 63.744 37.583 27.259 -0.44275 -0.25601 
1.275 685.8 78.502 37.437 27.740 -0.44933 -0.26095 
1.300 590.6 61.130 37.260 28.094 -0.45383 -0.26690 
1.325 787.4 71.093 37.241 28.441 -0.45889 -0.26755 
1.350 489.0 72.508 37.095 28.866 -0.46451 -0.27243 
1.375 889.0 80.917 36.983 29.168 -0.46841 -0.27622 
1.400 590.6 66.659 36.834 29.594 -0.47392 -0.28121 
1.425 1289.1 62.417 36.790 30.000 -0.47961 -0.28269 
1.450 2190.8 62.806 36.625 30.411 -0.48472 -0.28820 
1.475 780.0 0.000 45.000 0.000 0.00000 0.00000 
1.500 481.0 65.016 36.375 31.074 -0.49293 -0.29653 
1.525 580.0 73.222 36.224 31.320 -0.49561 -0.30158 
1.550 513.0 57.590 36.150 31.704 -0.50066 -0.30404 
1.575 562.0 64.369 36.017 32.050 -0.50478 -0.30847 
1.600 562.0 73.497 35.882 32.434 -0.50939 -0.31292 
1.625 515.0 67.138 35.785 32.719 -0.51280 -0.31614 
1.650 515.0 61.592 35.692 32.989 -0.51599 -0.31923 
1.675 515.0 73.705 35.515 33.386 -0.52039 -0.32506 
1.700 503.0 71.231 35.377 33.757 -0.52462 -0.32963 
1.725 492.0 70.419 35.307 34.038 -0.52801 -0.33194 
1.750 483.0 69.663 35.125 34.349 -0.53105 -0.33791 
1.775 473.0 68.948 35.023 34.591 -0.53363 -0.34127 
1.800 460.0 71.085 34.917 34.923 -0.53738 -0.34475 
1.825 460.0 77.177 34.770 35.203 -0.54011 -0.34954 
1.850 447.0 69.111 34.674 35.560 -0.54418 -0.35270 
1.875 447.0 75.493 34.518 35.868 -0.54714 -0.35779 
1.900 434.0 69.498 34.424 36.084 -0.54929 -0.36085 
1.925 434.0 76.016 34.291 36.398 -0.55241 -0.36518 
1.950 423.0 69.349 34.187 36.595 -0.55419 -0.36854 
1.975 423.0 76.417 34.064 36.912 -0.55735 -0.37255 
2.000 414.0 70.546 33.964 37.168 -0.55988 -0.37577 
2.025 414.0 73.847 33.846 37.474 -0.56287 -0.37959 
2.050 414.0 72.879 33.735 37.749 -0.56548 -0.38317 
2.075 401.0 69.981 33.647 38.008 -0.56805 -0.38600 
2.100 401.0 74.223 33.523 38.349 -0.57132 -0.38999 
2.125 401.0 77.584 33.422 38.571 -0.57326 -0.39324 
2.150 393.0 69.705 33.317 38.847 -0.57580 -0.39660 
2.175 393.0 72.776 33.185 39.078 -0.57752 -0.40084 
2.200 393.0 74.819 33.073 39.474 -0.58143 -0.40440 
2.225 393.0 77.691 32.952 39.766 -0.58392 -0.40826 
2.250 393.0 80.331 32.825 40.134 -0.58723 -0.41232 
2.275 384.0 69.300 32.699 40.439 -0.58976 -0.41630 
2.300 384.0 70.575 32.575 40.741 -0.59222 -0.42023 
2.325 384.0 72.264 32.410 41.115 -0.59508 -0.42548 
2.350 384.0 73.682 32.235 41.370 -0.59639 -0.43098 
2.375 384.0 74.913 32.034 41.760 -0.59896 -0.43730 
2.400 384.0 76.171 31.828 41.969 -0.59928 -0.44375 
2.425 377.0 69.770 31.591 42.109 -0.59842 -0.45117 
2.450 377.0 79.408 31.344 42.255 -0.59747 -0.45884 
2.475 370.0 69.188 31.115 42.283 -0.59530 -0.46594 
2.500 390.0 66.553 30.951 42.009 -0.59037 -0.47099 
2.525 390.0 66.604 30.778 41.815 -0.58625 -0.47629 
2.550 390.0 65.478 30.625 41.629 -0.58241 -0.48099 
2.575 390.0 69.075 30.533 41.493 -0.57984 -0.48379 
2.600 390.0 65.277 30.439 41.274 -0.57626 -0.48668 
2.625 390.0 77.641 30.388 41.218 -0.57506 -0.48821 
2.650 383.0 70.279 30.375 41.124 -0.57384 -0.48861 
2.675 383.0 61.604 30.375 41.070 -0.57321 -0.48862 
2.700 394.0 69.676 30.345 41.121 -0.57346 -0.48954 
2.725 394.0 65.554 30.317 41.080 -0.57267 -0.49039 
2.750 394.0 68.264 30.293 41.175 -0.57349 -0.49112 
2.775 402.0 69.580 30.279 41.237 -0.57404 -0.49154 
2.800 402.0 68.277 30.257 41.305 -0.57458 -0.49220 
2.825 402.0 67.672 30.207 41.368 -0.57472 -0.49374 
2.850 402.0 64.444 30.185 41.480 -0.57575 -0.49439 
2.875 402.0 62.766 30.154 41.544 -0.57612 -0.49534 
2.900 402.0 61.405 30.112 41.672 -0.57709 -0.49662 
2.925 402.0 60.312 30.096 41.776 -0.57807 -0.49711 
2.950 402.0 59.939 30.025 41.867 -0.57828 -0.49924 
2.975 412.0 68.052 29.967 42.045 -0.57961 -0.50099 
3.000 412.0 65.873 29.909 42.113 -0.57968 -0.50276 
3.025 412.0 63.232 29.866 42.227 -0.58044 -0.50405 
3.050 412.0 60.519 29.809 42.249 -0.58002 -0.50578 
3.075 423.0 70.686 29.729 42.410 -0.58086 -0.50817 
3.100 408.0 68.559 29.689 42.507 -0.58145 -0.50938 
3.125 408.0 66.627 29.598 42.555 -0.58089 -0.51210 
3.150 408.0 62.935 29.533 42.611 -0.58073 -0.51404 
3.175 417.0 69.750 29.438 42.676 -0.58028 -0.51689 
3.200 417.0 65.706 29.360 42.703 -0.57962 -0.51921 
3.225 417.0 63.116 29.270 42.675 -0.57821 -0.52189 
3.250 417.0 59.751 29.163 42.656 -0.57667 -0.52509 
3.275 429.0 69.399 29.032 42.507 -0.57342 -0.52896 
3.300 429.0 63.892 28.919 42.387 -0.57068 -0.53233 
3.325 439.0 68.745 28.821 42.139 -0.56675 -0.53520 
3.350 439.0 64.941 28.755 41.718 -0.56131 -0.53717 
3.375 439.0 64.349 28.727 41.403 -0.55749 -0.53799 
3.400 439.0 64.018 28.769 40.973 -0.55324 -0.53675 
3.425 439.0 62.230 28.848 40.667 -0.55081 -0.53440 
3.450 439.0 60.518 28.956 40.297 -0.54795 -0.53122 
3.475 449.0 68.601 29.071 40.162 -0.54779 -0.52783 
3.500 449.0 65.685 29.174 39.879 -0.54579 -0.52476 
3.525 449.0 62.861 29.306 39.782 -0.54623 -0.52084 
