## SPECTRUM TYPE:
Spectroscopic

## DATE:
1/30/2012

## COMMENTS:

## NUMBER OF SPECTRUM:
5

## ELLIPSOMETRIC CONFIGURATION:
+45.00 øModulator
+45.00 øAnalyser

## UNIT:
eV


# SPECTRUM:
1

# START TIME:
17:11:24

# END TIME:
17:22:44

# THETA ANGLE:
0.00 ø

# INCIDENCE ANGLE:
55.00 ø

# ACCUMULATION NUMBER:
1

# ELLIPSOMETRIC CONFIGURATION:
+45.00 øModulator
+45.00 øAnalyser

# INTEGRATION TIME:
500 ms

# FIRST POINT:
0.6000 eV

# LAST POINT:
6.5000 eV

# INCREMENT:
0.0250 eV

# NUMBER OF POINTS:
237

# DATA:
eV Hv S0 Psi Delta Is Ic 
0.600 1397.0 66.543 41.250 12.621 0.21664 0.13054 
0.625 1200.2 67.868 41.130 12.949 0.22205 0.13468 
0.650 1200.2 78.698 41.234 13.198 0.22634 0.13108 
0.675 1200.2 76.964 41.008 13.540 0.23185 0.13891 
0.700 1098.6 78.581 40.907 13.888 0.23759 0.14238 
0.725 997.0 73.440 41.086 14.203 0.24307 0.13619 
0.750 997.0 76.816 40.918 14.621 0.24987 0.14202 
0.775 895.4 73.360 40.630 14.946 0.25492 0.15195 
0.800 596.9 71.769 40.770 15.180 0.25901 0.14711 
0.825 793.8 69.367 40.650 15.627 0.26627 0.15124 
0.850 793.8 66.705 40.350 16.030 0.27251 0.16160 
0.875 596.9 75.619 40.396 16.318 0.27735 0.16004 
0.900 698.5 80.412 40.391 16.563 0.28139 0.16019 
0.925 800.1 79.720 40.396 16.878 0.28660 0.16000 
0.950 800.1 70.742 39.987 17.402 0.29451 0.17410 
0.975 527.1 60.363 39.976 17.799 0.30100 0.17446 
1.000 825.5 76.252 39.870 18.125 0.30612 0.17811 
1.025 730.3 61.002 39.644 18.536 0.31236 0.18587 
1.050 533.4 78.266 39.777 18.741 0.31596 0.18132 
1.075 831.9 80.705 39.618 19.102 0.32150 0.18676 
1.100 730.3 66.496 39.697 19.352 0.32570 0.18405 
1.125 730.3 66.040 39.402 19.813 0.33251 0.19416 
1.150 647.7 60.693 39.484 20.116 0.33757 0.19136 
1.175 647.7 65.340 39.227 20.478 0.34277 0.20016 
1.200 749.3 69.774 39.196 20.776 0.34746 0.20123 
1.225 552.5 72.919 39.088 21.095 0.35228 0.20489 
1.250 368.3 61.309 38.888 21.416 0.35685 0.21174 
1.275 660.4 81.063 38.763 21.834 0.36314 0.21601 
1.300 558.8 60.715 38.739 22.088 0.36708 0.21683 
1.325 755.7 72.099 38.567 22.442 0.37216 0.22266 
1.350 457.2 68.897 38.584 22.622 0.37505 0.22209 
1.375 857.3 81.746 38.385 22.972 0.37993 0.22886 
1.400 558.8 64.212 38.408 23.256 0.38444 0.22806 
1.425 1257.3 61.695 38.158 23.521 0.38775 0.23656 
1.450 2159.0 64.245 38.137 23.829 0.39247 0.23727 
1.475 616.0 78.032 38.054 24.004 0.39490 0.24009 
1.500 462.0 66.950 37.896 24.380 0.40016 0.24544 
1.525 555.0 73.343 37.792 24.616 0.40342 0.24895 
1.550 506.0 72.603 37.723 24.776 0.40563 0.25130 
1.575 541.0 66.791 37.557 25.110 0.41012 0.25689 
1.600 541.0 76.250 37.505 25.361 0.41374 0.25865 
1.625 498.0 73.497 37.311 25.659 0.41751 0.26517 
1.650 498.0 67.579 37.243 25.920 0.42119 0.26748 
1.675 487.0 68.641 37.160 26.139 0.42416 0.27026 
1.700 487.0 79.398 37.099 26.346 0.42701 0.27232 
1.725 468.0 68.579 36.961 26.654 0.43105 0.27696 
1.750 468.0 77.780 36.833 26.913 0.43437 0.28125 
1.775 452.0 69.455 36.719 27.109 0.43679 0.28504 
1.800 439.0 70.733 36.629 27.400 0.44070 0.28806 
1.825 439.0 76.214 36.474 27.622 0.44326 0.29323 
1.850 428.0 69.924 36.423 27.806 0.44572 0.29495 
1.875 428.0 75.583 36.262 28.019 0.44808 0.30030 
1.900 417.0 70.255 36.203 28.232 0.45091 0.30227 
1.925 417.0 76.212 36.081 28.440 0.45334 0.30633 
1.950 408.0 70.979 35.967 28.633 0.45558 0.31010 
1.975 408.0 77.003 35.895 28.804 0.45769 0.31249 
2.000 399.0 69.468 35.781 29.097 0.46132 0.31627 
2.025 399.0 71.076 35.668 29.280 0.46336 0.32001 
2.050 399.0 69.771 35.619 29.492 0.46615 0.32163 
2.075 390.0 70.112 35.518 29.681 0.46829 0.32496 
2.100 390.0 72.707 35.403 29.874 0.47040 0.32877 
2.125 390.0 75.401 35.326 30.059 0.47260 0.33132 
2.150 390.0 77.102 35.201 30.279 0.47500 0.33542 
2.175 390.0 79.020 35.117 30.453 0.47697 0.33816 
2.200 383.0 70.173 35.028 30.752 0.48066 0.34109 
2.225 383.0 71.721 34.933 30.937 0.48268 0.34423 
2.250 383.0 73.232 34.817 31.182 0.48539 0.34801 
2.275 383.0 74.032 34.715 31.439 0.48833 0.35136 
2.300 383.0 74.078 34.571 31.665 0.49055 0.35604 
2.325 383.0 74.876 34.420 31.936 0.49331 0.36097 
2.350 383.0 75.574 34.301 32.149 0.49544 0.36486 
2.375 383.0 75.920 34.131 32.343 0.49694 0.37035 
2.400 383.0 76.204 33.955 32.512 0.49802 0.37607 
2.425 376.0 69.091 33.748 32.661 0.49857 0.38274 
2.450 376.0 78.084 33.538 32.729 0.49797 0.38952 
2.475 376.0 76.997 33.341 32.702 0.49614 0.39583 
2.500 363.0 69.961 33.140 32.328 0.48958 0.40228 
2.525 363.0 70.101 32.985 32.194 0.48661 0.40722 
2.550 363.0 68.910 32.916 31.919 0.48238 0.40942 
2.575 363.0 72.662 32.892 31.670 0.47882 0.41018 
2.600 363.0 67.476 32.800 31.657 0.47796 0.41312 
2.625 356.0 69.685 32.733 31.549 0.47599 0.41522 
2.650 356.0 71.719 32.726 31.496 0.47522 0.41546 
2.675 356.0 62.190 32.824 31.355 0.47404 0.41234 
2.700 366.0 69.463 32.739 31.395 0.47395 0.41504 
2.725 366.0 64.526 32.738 31.356 0.47341 0.41508 
2.750 366.0 66.974 32.674 31.455 0.47427 0.41709 
2.775 374.0 67.931 32.617 31.546 0.47507 0.41890 
2.800 374.0 66.164 32.666 31.525 0.47515 0.41735 
2.825 374.0 65.064 32.629 31.582 0.47564 0.41853 
2.850 374.0 61.471 32.562 31.734 0.47718 0.42065 
2.875 374.0 59.524 32.542 31.786 0.47772 0.42128 
2.900 383.0 68.365 32.541 31.805 0.47797 0.42131 
2.925 383.0 66.672 32.530 31.862 0.47865 0.42168 
2.950 383.0 66.049 32.457 31.986 0.47974 0.42399 
2.975 383.0 62.095 32.405 31.997 0.47949 0.42562 
3.000 383.0 59.508 32.327 32.124 0.48056 0.42808 
3.025 393.0 68.416 32.320 32.139 0.48071 0.42832 
3.050 393.0 65.032 32.244 32.216 0.48113 0.43072 
3.075 393.0 62.126 32.246 32.230 0.48133 0.43063 
3.100 393.0 77.940 32.100 32.338 0.48160 0.43522 
3.125 393.0 74.978 32.093 32.323 0.48134 0.43545 
3.150 393.0 70.367 32.043 32.353 0.48132 0.43703 
3.175 393.0 65.791 31.955 32.388 0.48107 0.43978 
3.200 393.0 61.793 31.870 32.363 0.48003 0.44244 
3.225 402.0 69.211 31.799 32.331 0.47902 0.44467 
3.250 402.0 65.663 31.730 32.235 0.47719 0.44681 
3.275 402.0 61.195 31.663 32.103 0.47489 0.44892 
3.300 413.0 68.085 31.592 31.870 0.47122 0.45112 
3.325 413.0 61.086 31.595 31.494 0.46626 0.45103 
3.350 423.0 68.184 31.507 31.284 0.46274 0.45379 
3.375 423.0 67.472 31.533 30.911 0.45798 0.45296 
3.400 423.0 66.401 31.642 30.584 0.45448 0.44958 
3.425 423.0 64.535 31.782 30.304 0.45182 0.44520 
3.450 423.0 62.093 31.855 30.140 0.45017 0.44292 
3.475 432.0 69.146 32.062 29.939 0.44905 0.43641 
3.500 432.0 65.446 32.218 29.842 0.44890 0.43151 
3.525 432.0 62.212 32.335 29.807 0.44929 0.42783 
3.550 432.0 59.267 32.463 29.754 0.44951 0.42379 
3.575 442.0 67.017 32.663 29.735 0.45070 0.41747 
3.600 442.0 64.887 32.842 29.647 0.45077 0.41177 
3.625 442.0 62.487 32.984 29.646 0.45175 0.40726 
3.650 442.0 60.947 33.198 29.654 0.45337 0.40040 
3.675 442.0 59.079 33.401 29.704 0.45546 0.39392 
3.700 453.0 69.357 33.565 29.833 0.45836 0.38863 
3.725 453.0 67.850 33.778 29.952 0.46146 0.38178 
3.750 453.0 65.966 33.969 30.177 0.46586 0.37560 
3.775 453.0 63.731 34.191 30.351 0.46975 0.36841 
3.800 453.0 60.607 34.431 30.578 0.47448 0.36062 
3.825 464.0 68.705 34.712 30.797 0.47934 0.35145 
3.850 464.0 63.934 34.894 31.147 0.48538 0.34550 
3.875 464.0 58.505 35.122 31.508 0.49185 0.33802 
3.900 480.0 69.472 35.327 31.987 0.49982 0.33128 
3.925 480.0 64.705 35.549 32.371 0.50653 0.32395 
3.950 480.0 60.256 35.749 32.856 0.51449 0.31734 
3.975 494.0 70.303 35.913 33.323 0.52195 0.31189 
4.000 494.0 65.944 36.071 33.921 0.53116 0.30665 
4.025 494.0 62.472 36.266 34.474 0.53992 0.30019 
4.050 494.0 59.226 36.327 35.025 0.54784 0.29813 
4.075 507.0 68.136 36.492 35.617 0.55687 0.29263 
4.100 507.0 64.280 36.610 36.250 0.56613 0.28871 
4.125 507.0 60.982 36.716 36.895 0.57542 0.28515 
4.150 507.0 58.462 36.808 37.582 0.58514 0.28206 
4.175 521.0 69.856 36.848 38.318 0.59509 0.28074 
4.200 521.0 68.041 36.928 39.086 0.60563 0.27804 
4.225 521.0 66.665 36.956 39.967 0.61719 0.27710 
4.250 521.0 65.063 36.954 40.698 0.62652 0.27719 
4.275 521.0 62.965 36.936 41.527 0.63687 0.27779 
4.300 506.0 69.469 36.729 42.360 0.64590 0.28471 
4.325 506.0 74.356 36.573 43.103 0.65396 0.28992 
4.350 506.0 78.306 36.467 43.667 0.66006 0.29349 
4.375 495.0 69.646 36.377 44.104 0.66468 0.29646 
4.400 495.0 71.977 36.246 44.397 0.66722 0.30083 
4.425 495.0 74.143 36.042 44.925 0.67194 0.30763 
4.450 495.0 75.433 35.893 45.313 0.67534 0.31256 
4.475 495.0 76.062 35.692 45.802 0.67942 0.31922 
4.500 495.0 76.331 35.739 45.745 0.67915 0.31766 
4.525 495.0 76.248 35.455 46.426 0.68465 0.32704 
4.550 495.0 74.894 35.339 46.773 0.68760 0.33089 
4.575 495.0 74.024 35.284 47.069 0.69047 0.33268 
4.600 495.0 72.415 35.100 47.418 0.69277 0.33875 
4.625 495.0 70.303 34.992 47.806 0.69613 0.34228 
4.650 495.0 68.488 34.908 48.106 0.69867 0.34503 
4.675 495.0 65.844 34.927 48.325 0.70123 0.34442 
4.700 495.0 63.242 34.784 48.672 0.70369 0.34911 
4.725 495.0 60.964 34.799 48.651 0.70360 0.34861 
4.750 507.0 70.287 34.678 49.138 0.70773 0.35256 
4.775 507.0 66.576 34.594 49.285 0.70850 0.35531 
4.800 507.0 63.990 34.480 49.721 0.71204 0.35903 
4.825 507.0 60.252 34.238 50.238 0.71510 0.36690 
4.850 519.0 68.371 34.183 50.358 0.71580 0.36867 
4.875 519.0 64.601 34.161 50.698 0.71909 0.36938 
4.900 519.0 62.182 34.057 51.025 0.72139 0.37276 
4.925 530.0 67.766 33.814 51.531 0.72401 0.38063 
4.950 530.0 65.676 33.722 51.686 0.72460 0.38358 
4.975 530.0 62.966 33.612 51.964 0.72621 0.38713 
5.000 530.0 59.594 33.525 52.127 0.72689 0.38993 
5.025 546.0 70.600 33.427 52.456 0.72907 0.39307 
5.050 546.0 67.438 33.443 52.220 0.72691 0.39258 
5.075 546.0 63.148 33.286 52.791 0.73078 0.39760 
5.100 546.0 58.792 33.181 52.915 0.73080 0.40097 
5.125 561.0 66.846 33.119 53.128 0.73216 0.40295 
5.150 561.0 62.880 33.011 53.327 0.73284 0.40637 
5.175 572.0 67.104 32.712 54.193 0.73752 0.41591 
5.200 572.0 62.629 32.777 54.029 0.73677 0.41383 
5.225 586.0 69.328 32.683 54.347 0.73862 0.41681 
5.250 586.0 64.521 32.640 54.314 0.73779 0.41819 
5.275 586.0 59.895 32.405 54.713 0.73864 0.42563 
5.300 604.0 69.618 32.258 55.235 0.74157 0.43026 
5.325 604.0 64.517 32.245 55.155 0.74069 0.43067 
5.350 604.0 59.844 31.963 55.483 0.74010 0.43953 
5.375 619.0 67.430 32.076 55.331 0.74017 0.43600 
5.400 619.0 62.871 31.817 55.536 0.73871 0.44411 
5.425 632.0 67.865 31.632 55.950 0.73996 0.44989 
5.450 632.0 62.968 31.837 55.772 0.74105 0.44349 
5.475 646.0 68.888 31.464 56.585 0.74324 0.45512 
5.500 646.0 63.964 31.435 56.371 0.74104 0.45600 
5.525 661.0 69.752 31.142 56.977 0.74225 0.46509 
5.550 661.0 64.272 30.999 57.137 0.74164 0.46949 
5.575 661.0 59.033 30.801 57.260 0.73992 0.47559 
5.600 682.0 68.128 30.998 56.762 0.73847 0.46954 
5.625 682.0 61.861 30.733 57.187 0.73836 0.47769 
5.650 700.0 68.359 30.606 57.255 0.73714 0.48156 
5.675 700.0 62.676 30.659 57.150 0.73701 0.47995 
5.700 719.0 68.842 30.322 57.453 0.73471 0.49023 
5.725 719.0 62.489 30.262 57.672 0.73563 0.49205 
5.750 719.0 56.432 30.262 57.328 0.73281 0.49207 
5.775 746.0 66.546 30.505 57.323 0.73626 0.48465 
5.800 746.0 59.727 30.191 57.398 0.73236 0.49421 
5.825 766.0 65.697 29.759 57.639 0.72795 0.50726 
5.850 780.0 67.376 29.774 57.219 0.72478 0.50681 
5.875 780.0 59.876 29.536 57.627 0.72449 0.51396 
5.900 780.0 53.414 29.326 58.293 0.72657 0.52022 
5.925 780.0 47.361 29.367 56.917 0.71619 0.51901 
5.950 780.0 41.972 29.799 56.403 0.71841 0.50608 
5.975 780.0 36.837 29.372 57.321 0.71954 0.51887 
6.000 780.0 33.354 29.569 55.978 0.71147 0.51297 
6.025 780.0 29.236 29.193 56.415 0.70943 0.52421 
6.050 780.0 26.142 29.275 55.539 0.70339 0.52175 
6.075 780.0 23.583 29.307 55.221 0.70118 0.52080 
6.100 780.0 21.193 29.037 55.357 0.69827 0.52881 
6.125 780.0 19.001 29.487 53.859 0.69203 0.51543 
6.150 780.0 17.115 29.208 54.806 0.69616 0.52374 
6.175 780.0 15.438 29.258 53.505 0.68555 0.52227 
6.200 780.0 14.116 29.524 53.481 0.68921 0.51433 
6.225 780.0 12.824 29.393 52.901 0.68214 0.51823 
6.250 780.0 11.621 29.721 53.029 0.68799 0.50840 
6.275 780.0 10.620 29.896 52.810 0.68846 0.50314 
6.300 780.0 9.621 28.681 52.593 0.66891 0.53933 
6.325 780.0 8.602 30.230 50.237 0.66877 0.49304 
6.350 780.0 7.812 29.941 51.642 0.67828 0.50177 
6.375 780.0 6.986 30.386 49.987 0.66839 0.48829 
6.400 780.0 6.258 29.414 49.721 0.65276 0.51761 
6.425 780.0 5.603 30.463 49.046 0.66008 0.48593 
6.450 780.0 4.986 29.632 48.788 0.64661 0.51109 
6.475 780.0 4.432 31.185 47.565 0.65388 0.46376 
6.500 780.0 3.913 31.600 47.796 0.66119 0.45087 

# MINIMA:
0.600 356.0 3.913 28.681 12.621 0.21664 0.13054 

# MAXIMA:
6.500 2159.0 81.746 41.250 58.293 0.74324 0.53933 

# PEAKS:

# END SPECTRUM


# SPECTRUM:
2

# START TIME:
17:23:27

# END TIME:
17:33:57

# THETA ANGLE:
0.00 ø

# INCIDENCE ANGLE:
60.00 ø

# ACCUMULATION NUMBER:
1

# ELLIPSOMETRIC CONFIGURATION:
+45.00 øModulator
+45.00 øAnalyser

# INTEGRATION TIME:
500 ms

# FIRST POINT:
0.6000 eV

# LAST POINT:
6.5000 eV

# INCREMENT:
0.0250 eV

# NUMBER OF POINTS:
237

# DATA:
eV Hv S0 Psi Delta Is Ic 
0.600 1301.8 69.122 40.034 16.240 0.27547 0.17249 
0.625 1104.9 66.748 40.191 16.457 0.27932 0.16708 
0.650 1104.9 77.227 39.891 17.005 0.28781 0.17740 
0.675 1104.9 75.541 40.010 17.320 0.29320 0.17329 
0.700 1003.3 73.657 40.067 17.745 0.30027 0.17136 
0.725 901.7 67.847 39.843 18.291 0.30878 0.17904 
0.750 901.7 70.260 39.688 18.682 0.31483 0.18437 
0.775 800.1 64.984 39.480 19.291 0.32426 0.19149 
0.800 520.7 60.488 39.751 19.473 0.32778 0.18219 
0.825 717.6 62.680 39.425 20.041 0.33622 0.19339 
0.850 819.2 79.991 39.289 20.400 0.34167 0.19802 
0.875 520.7 61.129 39.249 20.887 0.34937 0.19940 
0.900 622.3 68.050 39.077 21.313 0.35573 0.20527 
0.925 723.9 68.942 38.972 21.785 0.36294 0.20885 
0.950 723.9 60.553 38.569 22.481 0.37278 0.22260 
0.975 527.1 64.593 38.653 22.771 0.37760 0.21973 
1.000 723.9 60.874 38.571 23.082 0.38222 0.22255 
1.025 723.9 63.589 38.417 23.614 0.39005 0.22778 
1.050 463.6 60.657 38.337 24.066 0.39681 0.23049 
1.075 762.0 69.832 38.433 24.338 0.40133 0.22723 
1.100 762.0 77.631 38.248 24.808 0.40797 0.23350 
1.125 762.0 77.822 38.066 25.309 0.41504 0.23968 
1.150 660.4 67.556 37.892 25.764 0.42136 0.24558 
1.175 660.4 71.785 37.770 26.195 0.42744 0.24971 
1.200 762.0 76.622 37.775 26.588 0.43341 0.24954 
1.225 565.2 79.751 37.648 26.976 0.43877 0.25383 
1.250 368.3 65.123 37.554 27.383 0.44448 0.25700 
1.275 641.4 79.936 37.336 27.823 0.45014 0.26435 
1.300 552.5 62.506 37.461 28.137 0.45534 0.26012 
1.325 749.3 73.820 37.188 28.547 0.46022 0.26933 
1.350 450.9 71.250 37.140 28.841 0.46434 0.27092 
1.375 831.9 81.325 36.859 29.366 0.47072 0.28036 
1.400 533.4 61.669 36.678 29.879 0.47730 0.28642 
1.425 1231.9 65.284 36.740 30.084 0.48058 0.28436 
1.450 1828.8 60.870 36.515 30.535 0.48594 0.29187 
1.475 780.0 0.000 45.000 0.000 0.00000 0.00000 
1.500 455.0 59.978 36.318 31.104 0.49306 0.29845 
1.525 558.0 75.910 36.236 31.364 0.49631 0.30119 
1.550 506.0 72.373 36.052 31.826 0.50183 0.30730 
1.575 540.0 66.463 35.893 32.203 0.50622 0.31258 
1.600 540.0 76.791 35.818 32.513 0.51012 0.31506 
1.625 494.0 70.918 35.721 32.796 0.51348 0.31827 
1.650 494.0 64.590 35.572 33.188 0.51800 0.32320 
1.675 494.0 77.296 35.448 33.480 0.52126 0.32728 
1.700 477.0 68.820 35.318 33.840 0.52538 0.33158 
1.725 468.0 70.124 35.172 34.214 0.52953 0.33637 
1.750 468.0 79.031 35.083 34.473 0.53245 0.33929 
1.775 450.0 68.858 34.950 34.783 0.53572 0.34365 
1.800 438.0 70.700 34.816 35.100 0.53905 0.34806 
1.825 438.0 76.322 34.688 35.440 0.54268 0.35225 
1.850 427.0 69.987 34.617 35.642 0.54487 0.35456 
1.875 427.0 76.376 34.473 36.002 0.54857 0.35926 
1.900 416.0 71.020 34.347 36.274 0.55122 0.36334 
1.925 416.0 77.249 34.243 36.502 0.55341 0.36671 
1.950 406.0 70.203 34.132 36.822 0.55672 0.37034 
1.975 406.0 76.792 34.010 37.079 0.55910 0.37429 
2.000 397.0 69.770 33.927 37.371 0.56219 0.37697 
2.025 397.0 71.602 33.784 37.692 0.56515 0.38158 
2.050 397.0 70.038 33.701 37.918 0.56735 0.38426 
2.075 388.0 70.337 33.608 38.189 0.57002 0.38725 
2.100 388.0 73.604 33.478 38.450 0.57221 0.39145 
2.125 388.0 75.695 33.365 38.758 0.57511 0.39506 
2.150 388.0 77.669 33.233 39.075 0.57791 0.39928 
2.175 380.0 68.352 33.156 39.308 0.58011 0.40176 
2.200 380.0 69.537 33.048 39.631 0.58313 0.40520 
2.225 380.0 71.070 32.923 39.959 0.58602 0.40918 
2.250 380.0 72.611 32.809 40.310 0.58922 0.41282 
2.275 380.0 73.452 32.694 40.606 0.59172 0.41646 
2.300 380.0 73.449 32.546 40.996 0.59498 0.42117 
2.325 380.0 74.190 32.380 41.299 0.59698 0.42642 
2.350 380.0 74.623 32.206 41.639 0.59926 0.43191 
2.375 380.0 75.012 32.025 41.884 0.60031 0.43759 
2.400 380.0 75.773 31.811 42.183 0.60158 0.44428 
2.425 380.0 78.320 31.556 42.425 0.60168 0.45226 
2.450 369.0 71.588 31.341 42.519 0.60046 0.45893 
2.475 369.0 70.511 31.103 42.547 0.59818 0.46629 
2.500 358.0 69.225 30.936 41.995 0.59004 0.47146 
2.525 358.0 68.987 30.634 42.036 0.58716 0.48070 
2.550 358.0 67.827 30.600 41.613 0.58196 0.48174 
2.575 358.0 71.750 30.500 41.396 0.57835 0.48482 
2.600 358.0 66.557 30.381 41.436 0.57747 0.48845 
2.625 358.0 78.523 30.306 41.246 0.57445 0.49072 
2.650 351.0 70.119 30.329 41.162 0.57376 0.49001 
2.675 351.0 60.679 30.346 41.128 0.57356 0.48950 
2.700 361.0 68.155 30.299 41.116 0.57289 0.49094 
2.725 361.0 63.323 30.222 41.292 0.57403 0.49328 
2.750 361.0 65.745 30.223 41.267 0.57375 0.49325 
2.775 371.0 69.349 30.210 41.286 0.57383 0.49364 
2.800 371.0 67.971 30.186 41.415 0.57502 0.49437 
2.825 371.0 66.624 30.168 41.474 0.57549 0.49490 
2.850 371.0 62.780 30.118 41.665 0.57707 0.49643 
2.875 371.0 60.816 30.100 41.728 0.57757 0.49698 
2.900 379.0 69.095 30.043 41.853 0.57834 0.49870 
2.925 379.0 67.144 30.003 41.956 0.57903 0.49990 
2.950 379.0 66.389 29.969 42.060 0.57980 0.50093 
2.975 379.0 62.475 29.893 42.184 0.58029 0.50324 
3.000 387.0 70.012 29.863 42.258 0.58077 0.50413 
3.025 387.0 66.489 29.802 42.373 0.58132 0.50598 
3.050 387.0 62.991 29.761 42.507 0.58232 0.50720 
3.075 387.0 59.895 29.739 42.545 0.58248 0.50787 
3.100 387.0 75.338 29.607 42.670 0.58226 0.51184 
3.125 387.0 72.538 29.499 42.872 0.58317 0.51508 
3.150 387.0 67.872 29.434 42.906 0.58275 0.51702 
3.175 387.0 63.593 29.349 43.009 0.58283 0.51954 
3.200 395.0 69.530 29.291 42.922 0.58116 0.52126 
3.225 395.0 65.749 29.198 42.924 0.58002 0.52405 
3.250 395.0 62.321 29.069 42.925 0.57842 0.52787 
3.275 404.0 68.193 28.920 42.881 0.57606 0.53229 
3.300 404.0 62.365 28.903 42.549 0.57224 0.53280 
3.325 415.0 68.511 28.779 42.317 0.56816 0.53645 
3.350 415.0 63.822 28.609 42.171 0.56443 0.54144 
3.375 415.0 63.243 28.675 41.667 0.55974 0.53952 
3.400 415.0 62.424 28.664 41.295 0.55552 0.53983 
3.425 415.0 60.309 28.803 40.851 0.55230 0.53575 
3.450 425.0 69.227 28.831 40.680 0.55073 0.53493 
3.475 425.0 65.890 29.024 40.375 0.54964 0.52921 
3.500 425.0 62.452 29.136 40.160 0.54854 0.52590 
3.525 434.0 69.094 29.276 40.063 0.54909 0.52172 
3.550 434.0 65.715 29.378 39.867 0.54803 0.51870 
3.575 434.0 62.728 29.525 39.715 0.54799 0.51429 
3.600 443.0 70.462 29.662 39.590 0.54811 0.51018 
3.625 443.0 68.070 29.860 39.447 0.54868 0.50423 
3.650 443.0 66.033 29.960 39.446 0.54978 0.50122 
3.675 443.0 64.310 30.173 39.368 0.55123 0.49475 
3.700 443.0 62.721 30.382 39.311 0.55283 0.48841 
3.725 443.0 61.021 30.613 39.291 0.55506 0.48136 
3.750 443.0 59.185 30.800 39.449 0.55892 0.47562 
3.775 454.0 68.459 31.094 39.450 0.56201 0.46656 
3.800 454.0 65.058 31.330 39.582 0.56600 0.45927 
3.825 454.0 60.990 31.538 39.713 0.56969 0.45280 
3.850 466.0 68.974 31.803 39.918 0.57480 0.44454 
3.875 466.0 63.328 32.096 40.092 0.57978 0.43535 
