## SPECTRUM TYPE:
Spectroscopic

## DATE:
11/9/2011

## COMMENTS:

## NUMBER OF SPECTRUM:
5

## ELLIPSOMETRIC CONFIGURATION:
0.00 ø :Modulator
-45.00 øAnalyser

## UNIT:
eV


# SPECTRUM:
1

# START TIME:
11:25:35

# END TIME:
11:37:19

# THETA ANGLE:
0.00 ø

# INCIDENCE ANGLE:
55.00 ø

# ACCUMULATION NUMBER:
1

# ELLIPSOMETRIC CONFIGURATION:
0.00 ø :Modulator
-45.00 øAnalyser

# INTEGRATION TIME:
500 ms

# FIRST POINT:
0.6000 eV

# LAST POINT:
6.5000 eV

# INCREMENT:
0.0250 eV

# NUMBER OF POINTS:
237

# DATA:
eV Hv S0 Psi Delta Is Ic 
0.600 1797.1 60.778 25.897 211.006 0.40479 0.67351 
0.625 1600.2 72.077 24.372 212.213 0.40074 0.63605 
0.650 1600.2 78.756 25.051 211.032 0.39549 0.65738 
0.675 1600.2 76.320 24.980 210.078 0.38370 0.66250 
0.700 1403.4 75.613 25.175 207.221 0.35220 0.68469 
0.725 1301.8 73.406 25.772 204.130 0.32013 0.71467 
0.750 1301.8 76.731 26.168 200.622 0.27880 0.74088 
0.775 1200.2 75.784 26.417 196.988 0.23283 0.76212 
0.800 800.1 66.495 26.769 193.422 0.18668 0.78228 
0.825 1098.6 74.638 28.268 189.209 0.13351 0.82349 
0.850 1098.6 72.124 26.942 185.343 0.07523 0.80431 
0.875 800.1 78.586 26.541 181.373 0.01915 0.79928 
0.900 901.7 67.621 27.710 177.181 -0.04049 0.82234 
0.925 1003.3 71.036 27.259 173.068 -0.09828 0.80834 
0.950 1003.3 61.738 27.159 168.848 -0.15711 0.79693 
0.975 806.5 75.240 26.944 164.723 -0.21286 0.77932 
1.000 1003.3 60.578 27.071 160.828 -0.26616 0.76552 
1.025 1003.3 62.175 26.796 156.987 -0.31464 0.74077 
1.050 704.9 68.869 26.415 153.287 -0.35820 0.71180 
1.075 1104.9 71.472 26.065 149.547 -0.40010 0.68049 
1.100 1104.9 72.223 26.097 146.120 -0.44044 0.65595 
1.125 1104.9 65.797 25.587 142.097 -0.47859 0.61472 
1.150 1104.9 71.088 24.974 137.105 -0.52102 0.56079 
1.175 1206.5 71.592 24.648 128.758 -0.59115 0.47458 
1.200 1505.0 60.892 25.196 113.221 -0.70802 0.30377 
1.225 1403.4 73.267 28.032 94.983 -0.82652 0.07207 
1.250 1104.9 77.425 32.194 77.572 -0.88061 -0.19407 
1.275 2705.1 61.317 36.605 58.812 -0.81900 -0.49578 
1.300 3905.3 49.725 38.531 29.699 -0.48286 -0.84659 
1.325 3905.3 35.776 39.384 357.998 0.03427 -0.98025 
1.350 3905.3 73.494 39.506 318.171 0.65468 -0.73148 
1.375 3708.4 77.945 36.419 293.360 0.87715 -0.37885 
1.400 2108.2 79.238 32.976 272.564 0.91229 -0.04085 
1.425 3905.3 33.093 29.960 260.054 0.85232 0.14946 
1.450 3905.3 18.732 28.426 247.807 0.77523 0.31625 
1.475 761.0 69.948 26.214 236.531 0.66116 0.43710 
1.500 561.0 71.969 26.534 230.643 0.61807 0.50690 
1.525 652.0 74.715 25.587 223.647 0.53771 0.56372 
1.550 572.0 62.675 25.601 217.017 0.46922 0.62229 
1.575 609.0 68.138 25.756 210.794 0.40073 0.67239 
1.600 609.0 77.683 25.894 204.725 0.32864 0.71370 
1.625 537.0 71.909 25.831 199.486 0.26164 0.73943 
1.650 552.0 68.572 25.981 193.905 0.18927 0.76452 
1.675 538.0 70.862 25.871 188.528 0.11644 0.77656 
1.700 525.0 70.150 26.065 183.251 0.04477 0.78813 
1.725 525.0 79.110 25.780 178.007 -0.02724 0.78279 
1.750 507.0 69.508 25.876 172.771 -0.09882 0.77909 
1.775 507.0 76.814 25.547 167.490 -0.16856 0.75970 
1.800 486.0 70.484 25.484 162.169 -0.23787 0.73948 
1.825 486.0 72.319 25.273 156.858 -0.30345 0.71000 
1.850 486.0 75.501 24.766 151.231 -0.36614 0.66687 
1.875 486.0 75.950 24.413 145.531 -0.42600 0.62056 
1.900 486.0 77.920 24.012 139.237 -0.48540 0.56308 
1.925 486.0 76.345 23.560 132.886 -0.53691 0.49868 
1.950 486.0 71.964 23.138 125.709 -0.58681 0.42181 
1.975 486.0 67.035 22.643 117.305 -0.63145 0.32598 
2.000 496.0 68.709 22.263 107.624 -0.66831 0.21231 
2.025 509.0 67.737 21.849 95.330 -0.68788 0.06418 
2.050 529.0 67.880 21.435 80.123 -0.67024 -0.11670 
2.075 529.0 60.816 20.752 59.783 -0.57262 -0.33351 
2.100 550.0 67.937 19.986 33.515 -0.35471 -0.53560 
2.125 550.0 64.388 19.086 3.412 -0.03679 -0.61694 
2.150 550.0 72.496 18.280 330.827 0.29036 -0.52012 
2.175 529.0 69.439 17.967 301.098 0.50251 -0.30310 
2.200 509.0 68.572 17.984 277.545 0.58225 -0.07712 
2.225 492.0 71.445 18.270 258.684 0.58380 0.11682 
2.250 476.0 71.020 18.639 244.099 0.54484 0.26457 
2.275 460.0 68.782 19.022 233.052 0.49251 0.37044 
2.300 451.0 70.628 19.439 223.475 0.43185 0.45548 
2.325 442.0 70.800 19.834 215.223 0.36817 0.52147 
2.350 442.0 79.658 20.152 208.285 0.30651 0.56961 
2.375 429.0 70.913 20.391 202.048 0.24518 0.60541 
2.400 429.0 76.834 20.572 196.301 0.18467 0.63151 
2.425 419.0 70.744 20.714 190.772 0.12367 0.65002 
2.450 411.0 71.229 20.722 185.889 0.06792 0.65841 
2.475 411.0 76.159 20.682 181.171 0.01350 0.66071 
2.500 391.0 71.006 20.721 176.371 -0.04190 0.66054 
2.525 391.0 74.469 20.366 171.914 -0.09178 0.64604 
2.550 391.0 69.326 20.082 167.693 -0.13747 0.63016 
2.575 391.0 75.498 19.776 163.634 -0.17943 0.61097 
2.600 391.0 64.796 19.235 159.422 -0.21866 0.58242 
2.625 391.0 75.429 18.642 155.258 -0.25353 0.55015 
2.650 391.0 78.449 17.983 151.356 -0.28153 0.51543 
2.675 391.0 62.706 17.270 147.626 -0.30359 0.47886 
2.700 405.0 68.590 16.331 143.631 -0.32002 0.43457 
2.725 415.0 69.822 15.284 139.713 -0.32885 0.38795 
2.750 415.0 67.359 14.075 136.192 -0.32659 0.34047 
2.775 428.0 68.274 12.743 133.085 -0.31425 0.29392 
2.800 428.0 61.493 11.311 130.945 -0.29054 0.25207 
2.825 438.0 68.024 9.766 130.008 -0.25609 0.21494 
2.850 438.0 61.496 8.126 132.014 -0.20794 0.18732 
2.875 449.0 69.738 6.731 137.889 -0.15610 0.17269 
2.900 449.0 68.159 5.789 148.633 -0.10446 0.17136 
2.925 449.0 68.290 5.529 163.326 -0.05504 0.18375 
2.950 449.0 71.065 6.000 177.330 -0.00969 0.20768 
2.975 449.0 72.447 6.903 185.933 0.02467 0.23736 
3.000 449.0 74.892 8.096 189.932 0.04810 0.27469 
3.025 449.0 78.195 9.174 191.261 0.06147 0.30874 
3.050 449.0 80.107 10.270 190.772 0.06558 0.34468 
3.075 439.0 69.630 11.196 189.448 0.06254 0.37578 
3.100 421.0 69.584 12.055 187.536 0.05357 0.40496 
3.125 421.0 72.472 12.738 185.384 0.04036 0.42824 
3.150 421.0 73.402 13.396 182.938 0.02310 0.45017 
3.175 421.0 72.173 13.853 180.491 0.00398 0.46492 
3.200 421.0 71.173 14.182 178.056 -0.01612 0.47480 
3.225 421.0 70.753 14.519 175.785 -0.03568 0.48407 
3.250 421.0 70.680 14.717 173.319 -0.05717 0.48808 
3.275 421.0 67.717 14.875 170.798 -0.07935 0.48982 
3.300 421.0 64.768 14.891 168.405 -0.09983 0.48656 
3.325 430.0 69.250 14.809 165.969 -0.11982 0.47946 
3.350 430.0 65.118 14.753 163.711 -0.13814 0.47274 
3.375 430.0 64.392 14.543 161.758 -0.15217 0.46169 
3.400 430.0 63.184 14.244 159.993 -0.16319 0.44819 
3.425 430.0 62.461 13.932 158.700 -0.16978 0.43546 
3.450 430.0 59.556 13.683 157.666 -0.17467 0.42519 
3.475 441.0 68.797 13.365 156.844 -0.17688 0.41356 
3.500 441.0 65.789 12.993 156.293 -0.17617 0.40119 
3.525 441.0 62.150 12.722 156.110 -0.17399 0.39281 
3.550 451.0 69.863 12.451 155.951 -0.17159 0.38452 
3.575 451.0 66.885 12.184 156.139 -0.16690 0.37732 
3.600 451.0 64.080 12.015 156.628 -0.16153 0.37379 
3.625 451.0 62.315 11.847 157.087 -0.15645 0.37014 
3.650 451.0 60.909 11.668 157.665 -0.15054 0.36640 
3.675 451.0 59.807 11.609 158.348 -0.14546 0.36641 
3.700 461.0 68.611 11.559 159.090 -0.14013 0.36677 
3.725 461.0 67.806 11.557 159.798 -0.13556 0.36842 
3.750 461.0 66.767 11.532 160.355 -0.13170 0.36896 
3.775 461.0 64.800 11.598 160.846 -0.12923 0.37206 
3.800 461.0 62.499 11.662 161.274 -0.12711 0.37498 
3.825 461.0 59.302 11.742 161.646 -0.12548 0.37821 
3.850 473.0 67.789 11.858 161.909 -0.12490 0.38233 
3.875 473.0 62.319 11.966 162.134 -0.12445 0.38609 
3.900 484.0 67.989 12.063 162.065 -0.12586 0.38887 
3.925 484.0 62.357 12.158 161.968 -0.12746 0.39155 
3.950 494.0 68.407 12.204 161.807 -0.12902 0.39258 
3.975 494.0 63.597 12.307 161.489 -0.13223 0.39494 
4.000 504.0 68.758 12.359 161.261 -0.13434 0.39599 
4.025 504.0 64.101 12.413 160.784 -0.13820 0.39648 
4.050 504.0 60.222 12.516 160.543 -0.14095 0.39897 
4.075 516.0 67.895 12.509 160.184 -0.14336 0.39787 
4.100 516.0 63.166 12.558 159.780 -0.14671 0.39831 
4.125 527.0 68.548 12.601 159.315 -0.15040 0.39836 
4.150 527.0 64.087 12.544 158.806 -0.15330 0.39534 
4.175 527.0 60.430 12.610 158.468 -0.15639 0.39636 
4.200 539.0 68.043 12.618 157.965 -0.15996 0.39521 
4.225 539.0 64.691 12.598 157.538 -0.16265 0.39341 
4.250 539.0 61.979 12.547 157.205 -0.16431 0.39098 
4.275 551.0 70.057 12.508 156.887 -0.16599 0.38892 
4.300 533.0 71.460 12.615 156.599 -0.16929 0.39118 
4.325 533.0 74.907 12.609 156.235 -0.17169 0.38993 
4.350 533.0 78.621 12.568 155.942 -0.17316 0.38786 
4.375 523.0 69.212 12.573 155.961 -0.17310 0.38808 
4.400 523.0 70.590 12.464 155.617 -0.17400 0.38389 
4.425 523.0 71.946 12.295 155.233 -0.17433 0.37785 
4.450 523.0 72.257 12.376 155.345 -0.17466 0.38052 
4.475 523.0 71.839 12.263 155.123 -0.17463 0.37659 
4.500 523.0 71.940 12.348 155.157 -0.17553 0.37914 
4.525 523.0 72.289 12.364 155.139 -0.17587 0.37955 
4.550 523.0 70.323 12.413 155.188 -0.17620 0.38112 
4.575 523.0 68.853 12.429 155.023 -0.17751 0.38106 
4.600 523.0 68.602 12.238 154.797 -0.17642 0.37487 
4.625 523.0 66.117 12.346 154.853 -0.17751 0.37815 
4.650 523.0 64.013 12.201 154.578 -0.17735 0.37312 
4.675 523.0 62.202 12.172 154.396 -0.17814 0.37173 
4.700 523.0 60.636 12.314 154.571 -0.17893 0.37634 
4.725 534.0 69.435 12.233 154.496 -0.17832 0.37379 
4.750 534.0 66.170 12.330 154.385 -0.18038 0.37622 
4.775 534.0 63.483 12.267 154.383 -0.17953 0.37442 
4.800 534.0 61.829 12.294 154.040 -0.18215 0.37412 
4.825 545.0 68.437 12.364 154.095 -0.18275 0.37627 
4.850 545.0 66.932 12.427 154.485 -0.18105 0.37933 
4.875 545.0 63.280 12.388 153.967 -0.18392 0.37654 
4.900 545.0 61.970 12.256 153.731 -0.18362 0.37203 
4.925 557.0 70.710 12.363 153.536 -0.18640 0.37445 
4.950 557.0 68.438 12.471 153.931 -0.18532 0.37880 
4.975 557.0 66.501 12.437 153.752 -0.18603 0.37726 
5.000 557.0 65.047 12.559 153.753 -0.18772 0.38071 
5.025 557.0 63.222 12.447 153.170 -0.18998 0.37562 
5.050 557.0 60.729 12.327 153.110 -0.18866 0.37203 
5.075 569.0 69.292 12.330 152.801 -0.19071 0.37110 
5.100 569.0 65.936 12.365 152.744 -0.19159 0.37189 
5.125 569.0 64.157 12.470 152.568 -0.19425 0.37425 
5.150 569.0 61.730 12.457 152.872 -0.19208 0.37491 
5.175 582.0 69.900 12.512 152.547 -0.19501 0.37538 
5.200 582.0 68.095 12.442 152.573 -0.19381 0.37348 
5.225 582.0 64.914 12.493 152.288 -0.19643 0.37396 
5.250 582.0 61.965 12.510 152.295 -0.19663 0.37444 
5.275 582.0 59.967 12.501 152.160 -0.19737 0.37372 
5.300 599.0 71.252 12.393 151.732 -0.19855 0.36923 
5.325 599.0 69.066 12.420 151.612 -0.19972 0.36956 
5.350 599.0 66.111 12.566 151.965 -0.19961 0.37486 
5.375 599.0 64.820 12.528 151.782 -0.20024 0.37317 
5.400 599.0 62.526 12.544 151.515 -0.20223 0.37269 
5.425 599.0 60.664 12.518 151.302 -0.20322 0.37121 
5.450 611.0 68.189 12.475 151.078 -0.20400 0.36921 
5.475 611.0 65.823 12.392 150.790 -0.20458 0.36589 
5.500 611.0 63.288 12.484 151.192 -0.20341 0.36988 
5.525 611.0 61.412 12.598 151.014 -0.20630 0.37240 
5.550 626.0 70.175 12.495 150.688 -0.20682 0.36836 
5.575 626.0 67.183 12.615 150.901 -0.20729 0.37245 
5.600 626.0 64.469 12.550 150.199 -0.21082 0.36809 
5.625 626.0 61.815 12.570 150.450 -0.20953 0.36958 
5.650 639.0 68.198 12.599 150.533 -0.20943 0.37066 
5.675 639.0 65.367 12.609 150.256 -0.21138 0.36992 
5.700 639.0 61.410 12.417 149.451 -0.21347 0.36169 
5.725 652.0 68.230 12.637 150.231 -0.21198 0.37062 
5.750 652.0 63.679 12.608 150.034 -0.21280 0.36909 
5.775 652.0 59.560 12.629 149.746 -0.21498 0.36858 
5.800 669.0 67.344 12.652 149.664 -0.21588 0.36889 
5.825 669.0 64.087 12.632 149.507 -0.21657 0.36777 
5.850 669.0 58.915 12.600 149.294 -0.21742 0.36610 
5.875 687.0 67.663 12.575 149.087 -0.21834 0.36463 
5.900 687.0 63.128 12.635 148.977 -0.22001 0.36583 
5.925 702.0 67.711 12.666 148.635 -0.22270 0.36534 
5.950 702.0 62.177 12.621 149.667 -0.21537 0.36807 
5.975 719.0 67.698 12.699 149.144 -0.21997 0.36819 
6.000 719.0 63.160 12.716 148.354 -0.22532 0.36559 
6.025 736.0 68.409 12.775 148.996 -0.22216 0.36967 
6.050 736.0 63.009 12.771 148.561 -0.22489 0.36786 
6.075 736.0 57.782 12.619 148.097 -0.22533 0.36196 
6.100 756.0 66.181 12.532 147.632 -0.22680 0.35782 
6.125 756.0 60.031 12.838 148.212 -0.22825 0.36829 
6.150 775.0 66.387 12.645 147.609 -0.22885 0.36073 
6.175 775.0 61.601 12.753 147.694 -0.23013 0.36396 
6.200 780.0 59.661 12.607 147.125 -0.23123 0.35777 
6.225 780.0 56.142 12.528 147.235 -0.22921 0.35613 
6.250 780.0 51.804 12.681 148.019 -0.22687 0.36334 
6.275 780.0 47.846 12.635 147.139 -0.23163 0.35859 
6.300 780.0 44.049 12.501 147.820 -0.22509 0.35772 
6.325 780.0 40.661 12.633 147.219 -0.23109 0.35884 
6.350 780.0 37.078 12.603 147.722 -0.22743 0.36007 
6.375 780.0 33.770 12.816 148.240 -0.22770 0.36781 
6.400 780.0 30.479 12.633 146.536 -0.23535 0.35607 
6.425 780.0 27.297 12.581 147.615 -0.22772 0.35905 
6.450 780.0 23.801 12.748 147.722 -0.22986 0.36392 
6.475 780.0 20.932 12.559 147.687 -0.22690 0.35874 
6.500 780.0 18.097 12.774 148.291 -0.22668 0.36690 

# MINIMA:
0.600 391.0 18.097 5.529 3.412 -0.88061 -0.98025 

# MAXIMA:
6.500 3905.3 80.107 39.506 357.998 0.91229 0.82349 

# PEAKS:

# END SPECTRUM


# SPECTRUM:
2

# START TIME:
11:38:03

# END TIME:
11:48:39

# THETA ANGLE:
0.00 ø

# INCIDENCE ANGLE:
60.00 ø

# ACCUMULATION NUMBER:
1

# ELLIPSOMETRIC CONFIGURATION:
0.00 ø :Modulator
-45.00 øAnalyser

# INTEGRATION TIME:
500 ms

# FIRST POINT:
0.6000 eV

# LAST POINT:
6.5000 eV

# INCREMENT:
0.0250 eV

# NUMBER OF POINTS:
237

# DATA:
eV Hv S0 Psi Delta Is Ic 
0.600 1797.1 62.326 19.304 226.610 0.45345 0.42865 
0.625 1600.2 73.652 19.572 226.979 0.46154 0.43070 
0.650 1498.6 71.524 21.071 225.394 0.47770 0.47117 
0.675 1498.6 68.101 22.007 222.671 0.47095 0.51088 
0.700 1397.0 75.932 21.853 219.379 0.43838 0.53409 
0.725 1295.4 74.823 21.656 216.112 0.40429 0.55416 
0.750 1295.4 77.156 22.245 211.189 0.36291 0.59949 
0.775 1193.8 76.400 21.845 206.922 0.31276 0.61590 
0.800 793.8 69.253 22.055 201.658 0.25688 0.64691 
0.825 1092.2 74.767 22.355 196.056 0.19457 0.67607 
0.850 1092.2 73.044 22.435 190.394 0.12728 0.69392 
0.875 793.8 77.411 22.174 184.875 0.05941 0.69648 
0.900 895.4 71.209 22.280 178.860 -0.01396 0.70153 
0.925 997.0 73.345 22.173 173.167 -0.08317 0.69402 
0.950 997.0 64.767 22.328 167.444 -0.15279 0.68604 
0.975 800.1 77.630 22.610 161.748 -0.22231 0.67410 
1.000 997.0 64.555 22.666 156.251 -0.28642 0.65096 
1.025 997.0 67.156 22.259 150.558 -0.34464 0.61058 
1.050 698.5 70.870 22.253 145.507 -0.39697 0.57774 
1.075 1098.6 77.517 22.469 140.624 -0.44812 0.54600 
1.100 1098.6 79.292 22.270 135.381 -0.49266 0.49925 
1.125 1098.6 72.321 22.124 129.729 -0.53664 0.44599 
1.150 1098.6 78.407 22.047 122.974 -0.58374 0.37871 
1.175 1098.6 65.692 22.413 112.562 -0.65100 0.27048 
1.200 1397.0 64.428 24.302 97.360 -0.74398 0.09610 
1.225 1200.2 68.729 27.766 83.208 -0.81866 -0.09750 
1.250 901.7 70.424 31.573 70.413 -0.84053 -0.29908 
1.275 1701.8 64.550 35.621 56.915 -0.79336 -0.51690 
1.300 2203.5 61.177 39.825 38.500 -0.61238 -0.76988 
1.325 3505.2 60.713 40.003 17.203 -0.29127 -0.94077 
1.350 2305.1 79.068 41.420 346.249 0.23585 -0.96376 
1.375 2501.9 62.204 41.108 323.193 0.59361 -0.79328 
1.400 2000.3 79.689 36.751 300.658 0.82481 -0.48893 
1.425 3898.9 33.993 32.463 287.168 0.86540 -0.26736 
1.450 4000.5 19.969 29.134 274.548 0.84783 -0.06744 
1.475 780.0 85.285 25.256 263.054 0.76610 0.09333 
1.500 551.0 64.259 25.046 254.563 0.73941 0.20418 
1.525 632.0 62.626 23.642 245.665 0.66945 0.30276 
1.550 578.0 74.173 22.978 237.424 0.60572 0.38702 
1.575 602.0 66.741 22.236 229.524 0.53289 0.45475 
1.600 592.0 68.648 21.908 221.320 0.45713 0.51997 
1.625 535.0 74.625 21.554 213.981 0.38196 0.56668 
1.650 535.0 59.823 21.387 205.971 0.29738 0.61052 
1.675 535.0 74.587 21.121 198.491 0.21321 0.63755 
1.700 519.0 70.616 21.185 190.968 0.12822 0.66160 
1.725 510.0 70.386 21.031 183.475 0.04060 0.66869 
1.750 501.0 71.188 20.882 176.052 -0.04586 0.66447 
1.775 492.0 69.536 20.845 168.751 -0.12974 0.65232 
1.800 476.0 68.126 20.778 161.072 -0.21518 0.62747 
1.825 476.0 71.215 20.660 153.618 -0.29339 0.59149 
1.850 476.0 75.223 20.525 146.095 -0.36632 0.54504 
1.875 476.0 77.324 20.528 138.684 -0.43362 0.49330 
1.900 466.0 68.955 20.471 130.620 -0.49739 0.42661 
1.925 466.0 69.912 20.479 122.807 -0.55095 0.35516 
1.950 466.0 68.549 20.585 114.559 -0.59874 0.27360 
1.975 466.0 66.219 20.729 105.579 -0.63775 0.17781 
2.000 466.0 62.225 21.040 96.010 -0.66648 0.07017 
2.025 481.0 68.418 21.521 85.220 -0.68016 -0.05687 
2.050 492.0 66.578 22.150 73.430 -0.66942 -0.19918 
2.075 492.0 63.910 22.802 59.200 -0.61374 -0.36586 
2.100 505.0 67.357 23.507 42.196 -0.49134 -0.54194 
2.125 505.0 60.561 23.802 23.328 -0.29245 -0.67814 
2.150 505.0 59.951 23.446 2.282 -0.02907 -0.72948 
2.175 505.0 65.417 22.312 340.686 0.23234 -0.66292 
2.200 505.0 77.842 20.695 320.499 0.42057 -0.51017 
2.225 484.0 70.805 19.056 302.013 0.52334 -0.32719 
2.250 470.0 70.743 17.659 285.653 0.55667 -0.15598 
2.275 457.0 69.758 16.621 271.050 0.54807 -0.01005 
2.300 447.0 70.346 15.805 257.700 0.51210 0.11165 
2.325 438.0 71.359 15.253 245.033 0.46020 0.21427 
2.350 429.0 69.693 14.952 234.214 0.40442 0.29153 
2.375 429.0 77.671 14.705 224.517 0.34428 0.35013 
2.400 418.0 69.942 14.586 214.998 0.27957 0.39929 
2.425 418.0 77.769 14.492 205.943 0.21199 0.43575 
2.450 403.0 70.117 14.460 197.849 0.14823 0.46032 
2.475 403.0 75.786 14.361 190.311 0.08602 0.47281 
2.500 388.0 71.462 14.308 182.508 0.02096 0.47847 
2.525 388.0 76.227 14.238 175.363 -0.03855 0.47524 
2.550 388.0 71.856 14.062 168.568 -0.09343 0.46203 
2.575 388.0 78.870 13.879 161.830 -0.14524 0.44253 
2.600 388.0 69.815 13.654 154.963 -0.19415 0.41567 
2.625 379.0 68.692 13.415 148.501 -0.23581 0.38483 
2.650 379.0 71.972 13.096 142.100 -0.27113 0.34828 
2.675 387.0 69.560 12.724 135.898 -0.29904 0.30856 
2.700 387.0 60.075 12.250 129.321 -0.32081 0.26278 
2.725 401.0 67.014 11.707 121.927 -0.33726 0.21014 
2.750 401.0 66.626 11.077 114.923 -0.34197 0.15890 
2.775 413.0 67.835 10.425 108.575 -0.33738 0.11338 
2.800 413.0 61.418 9.618 101.308 -0.32306 0.06460 
2.825 423.0 68.539 8.747 94.052 -0.29985 0.02124 
2.850 423.0 61.821 7.697 86.353 -0.26493 -0.01689 
2.875 433.0 68.106 6.570 78.194 -0.22253 -0.04651 
2.900 433.0 65.732 5.415 70.451 -0.17705 -0.06287 
2.925 433.0 64.243 4.235 62.036 -0.13010 -0.06907 
2.950 433.0 65.183 2.897 53.392 -0.08104 -0.06020 
2.975 433.0 64.014 1.635 42.549 -0.03856 -0.04201 
3.000 433.0 65.304 0.431 7.525 -0.00197 -0.01493 
3.025 433.0 67.173 0.816 236.294 0.02368 0.01580 
3.050 433.0 67.716 1.789 219.445 0.03965 0.04819 
3.075 433.0 69.206 2.778 209.964 0.04836 0.08389 
3.100 416.0 70.136 3.700 202.352 0.04898 0.11911 
3.125 416.0 73.526 4.503 196.436 0.04430 0.15016 
3.150 416.0 73.922 5.256 190.639 0.03369 0.17932 
3.175 416.0 73.340 5.877 185.152 0.01829 0.20290 
3.200 416.0 72.564 6.363 180.260 0.00100 0.22030 
3.225 416.0 72.411 6.872 175.623 -0.01813 0.23688 
3.250 416.0 72.241 7.261 170.900 -0.03966 0.24758 
3.275 416.0 70.500 7.628 166.420 -0.06179 0.25579 
3.300 416.0 67.662 7.845 161.882 -0.08410 0.25703 
3.325 416.0 62.878 8.037 157.562 -0.10568 0.25592 
3.350 416.0 59.527 8.136 152.946 -0.12744 0.24954 
3.375 416.0 59.074 8.174 149.026 -0.14486 0.24133 
3.400 416.0 59.338 8.115 145.403 -0.15869 0.23007 
3.425 426.0 69.210 8.041 141.996 -0.17057 0.21829 
3.450 426.0 67.855 7.882 138.993 -0.17825 0.20500 
3.475 426.0 64.416 7.727 136.616 -0.18303 0.19366 
3.500 426.0 61.527 7.558 134.454 -0.18614 0.18262 
3.525 435.0 68.497 7.344 132.374 -0.18732 0.17089 
3.550 435.0 65.523 7.123 130.800 -0.18630 0.16081 
