## SPECTRUM TYPE:
Spectroscopic

## DATE:
11/9/2011

## COMMENTS:

## NUMBER OF SPECTRUM:
5

## ELLIPSOMETRIC CONFIGURATION:
+90.00 øModulator
-45.00 øAnalyser

## UNIT:
eV


# SPECTRUM:
1

# START TIME:
15:16:59

# END TIME:
15:29:11

# THETA ANGLE:
0.00 ø

# INCIDENCE ANGLE:
55.00 ø

# ACCUMULATION NUMBER:
1

# ELLIPSOMETRIC CONFIGURATION:
+90.00 øModulator
-45.00 øAnalyser

# INTEGRATION TIME:
500 ms

# FIRST POINT:
0.6000 eV

# LAST POINT:
6.5000 eV

# INCREMENT:
0.0250 eV

# NUMBER OF POINTS:
237

# DATA:
eV Hv S0 Psi Delta Is Ic 
0.600 3898.9 58.262 23.579 212.529 0.39428 -0.61820 
0.625 3600.5 78.894 24.368 212.420 0.40299 -0.63452 
0.650 3403.6 79.574 25.120 211.057 0.39659 -0.65853 
0.675 3302.0 78.278 25.816 209.759 0.38916 -0.68065 
0.700 2501.9 79.492 26.045 206.899 0.35695 -0.70361 
0.725 2101.9 79.666 26.428 203.845 0.32224 -0.72907 
0.750 2000.3 79.295 26.709 200.507 0.28130 -0.75212 
0.775 1600.2 70.543 26.892 196.939 0.23506 -0.77180 
0.800 1098.6 65.681 26.968 193.219 0.18485 -0.78693 
0.825 1397.0 62.714 27.200 189.146 0.12924 -0.80276 
0.850 1397.0 61.223 27.177 185.214 0.07384 -0.80927 
0.875 1098.6 76.994 27.310 181.104 0.01570 -0.81518 
0.900 1200.2 66.131 27.259 176.946 -0.04339 -0.81315 
0.925 1301.8 65.542 27.312 172.864 -0.10129 -0.80905 
0.950 1403.4 71.743 27.189 168.725 -0.15893 -0.79719 
0.975 1104.9 77.720 27.080 164.537 -0.21613 -0.78131 
1.000 1301.8 61.933 27.009 160.687 -0.26762 -0.76366 
1.025 1301.8 65.812 26.840 156.788 -0.31756 -0.74050 
1.050 901.7 67.397 26.555 152.904 -0.36430 -0.71202 
1.075 1301.8 64.922 26.366 149.453 -0.40447 -0.68535 
1.100 1301.8 69.629 26.173 145.970 -0.44307 -0.65613 
1.125 1301.8 68.472 25.777 141.961 -0.48260 -0.61683 
1.150 1301.8 76.779 25.204 137.149 -0.52408 -0.56495 
1.175 1301.8 65.057 24.620 128.464 -0.59309 -0.47116 
1.200 1600.2 61.814 25.204 112.962 -0.70954 -0.30062 
1.225 1403.4 73.914 28.062 94.617 -0.82755 -0.06684 
1.250 1003.3 71.349 32.479 76.924 -0.88251 0.20497 
1.275 1803.4 60.876 37.247 57.796 -0.81536 0.51353 
1.300 2305.1 62.051 39.806 29.655 -0.48666 0.85478 
1.325 3206.8 61.865 38.953 356.807 0.05446 0.97629 
1.350 1809.8 76.195 40.646 317.942 0.66217 0.73390 
1.375 2209.8 62.648 37.069 293.757 0.88041 0.38752 
1.400 1809.8 75.550 32.988 272.688 0.91237 0.04283 
1.425 3911.6 35.361 29.908 259.880 0.85096 -0.15189 
1.450 3911.6 19.512 28.070 247.896 0.76937 -0.31246 
1.475 780.0 76.382 26.297 237.703 0.67145 -0.42443 
1.500 565.0 62.659 26.366 230.493 0.61402 -0.50627 
1.525 673.0 75.247 26.011 223.036 0.53795 -0.57615 
1.550 587.0 59.707 25.875 216.824 0.47068 -0.62863 
1.575 636.0 64.620 25.827 210.506 0.39812 -0.67573 
1.600 636.0 71.201 25.928 204.487 0.32598 -0.71573 
1.625 575.0 74.886 25.938 199.210 0.25884 -0.74286 
1.650 575.0 58.602 26.010 193.503 0.18405 -0.76643 
1.675 575.0 71.967 26.030 188.204 0.11254 -0.78058 
1.700 560.0 70.826 26.047 182.936 0.04042 -0.78798 
1.725 550.0 70.231 25.986 177.720 -0.03133 -0.78708 
1.750 539.0 69.905 25.861 172.472 -0.10284 -0.77826 
1.775 529.0 69.912 25.679 167.237 -0.17255 -0.76176 
1.800 511.0 69.741 25.429 161.878 -0.24124 -0.73712 
1.825 511.0 74.511 25.185 156.632 -0.30547 -0.70700 
1.850 502.0 71.009 24.841 150.965 -0.37006 -0.66665 
1.875 502.0 74.788 24.466 145.334 -0.42883 -0.62009 
1.900 492.0 68.693 24.021 139.108 -0.48681 -0.56215 
1.925 492.0 71.456 23.589 132.527 -0.54052 -0.49578 
1.950 492.0 72.349 23.120 125.285 -0.58956 -0.41721 
1.975 492.0 71.033 22.705 117.042 -0.63428 -0.32377 
2.000 492.0 67.359 22.289 107.472 -0.66951 -0.21074 
2.025 492.0 58.924 21.844 95.058 -0.68803 -0.06089 
2.050 512.0 66.821 21.426 79.901 -0.66956 0.11925 
2.075 512.0 65.518 20.793 59.681 -0.57296 0.33507 
2.100 512.0 59.980 19.885 33.829 -0.35613 0.53140 
2.125 522.0 66.836 18.869 3.572 -0.03813 0.61087 
2.150 522.0 70.872 18.149 331.037 0.28666 0.51795 
2.175 510.0 68.920 17.683 301.003 0.49610 0.29812 
2.200 498.0 69.188 17.717 277.638 0.57461 0.07706 
2.225 484.0 68.716 17.994 258.821 0.57647 -0.11392 
2.250 471.0 69.114 18.431 244.111 0.53970 -0.26194 
2.275 461.0 71.357 18.861 232.708 0.48675 -0.37069 
2.300 448.0 68.250 19.280 223.014 0.42523 -0.45577 
2.325 440.0 69.460 19.681 214.667 0.36074 -0.52162 
2.350 440.0 78.211 19.993 207.691 0.29862 -0.56901 
2.375 426.0 68.314 20.306 201.643 0.24008 -0.60503 
2.400 426.0 75.123 20.495 195.805 0.17865 -0.63113 
2.425 415.0 68.817 20.662 190.362 0.11876 -0.64953 
2.450 407.0 71.480 20.725 185.462 0.06300 -0.65896 
2.475 407.0 77.833 20.653 180.877 0.01010 -0.66001 
2.500 432.0 66.303 20.577 176.249 -0.04305 -0.65667 
2.525 432.0 71.320 20.378 171.802 -0.09309 -0.64616 
2.550 432.0 69.078 20.086 167.507 -0.13954 -0.62980 
2.575 424.0 67.344 19.712 163.412 -0.18130 -0.60864 
2.600 424.0 60.955 19.261 159.194 -0.22123 -0.58221 
2.625 424.0 75.215 18.721 155.105 -0.25592 -0.55146 
2.650 415.0 68.794 18.066 151.149 -0.28452 -0.51646 
2.675 415.0 60.112 17.372 147.427 -0.30683 -0.48028 
2.700 426.0 65.569 16.452 143.474 -0.32331 -0.43653 
2.725 435.0 70.206 15.350 139.439 -0.33199 -0.38787 
2.750 435.0 72.425 14.152 135.686 -0.33124 -0.33927 
2.775 435.0 61.514 12.928 132.954 -0.31919 -0.29717 
2.800 435.0 58.832 11.526 130.664 -0.29703 -0.25516 
2.825 447.0 69.686 9.913 129.570 -0.26144 -0.21605 
2.850 447.0 65.482 8.312 130.951 -0.21607 -0.18750 
2.875 447.0 63.619 6.881 136.432 -0.16395 -0.17236 
2.900 447.0 61.993 5.890 146.768 -0.11189 -0.17078 
2.925 447.0 61.494 5.502 160.860 -0.06259 -0.18034 
2.950 447.0 63.174 5.949 175.438 -0.01640 -0.20552 
2.975 447.0 61.850 6.845 184.501 0.01857 -0.23593 
3.000 447.0 61.743 7.970 189.188 0.04385 -0.27111 
3.025 447.0 62.656 9.099 190.501 0.05691 -0.30706 
3.050 447.0 61.971 10.134 190.227 0.06150 -0.34092 
3.075 447.0 62.449 11.087 188.981 0.05892 -0.37279 
3.100 437.0 70.473 11.933 187.035 0.04955 -0.40156 
3.125 437.0 72.530 12.660 184.910 0.03661 -0.42611 
3.150 437.0 71.420 13.262 182.606 0.02031 -0.44612 
3.175 437.0 70.599 13.778 180.088 0.00071 -0.46260 
3.200 437.0 69.764 14.168 177.704 -0.01901 -0.47427 
3.225 437.0 68.686 14.448 175.257 -0.03995 -0.48156 
3.250 437.0 68.701 14.691 172.847 -0.06109 -0.48683 
3.275 437.0 67.436 14.846 170.264 -0.08376 -0.48821 
3.300 437.0 64.480 14.885 167.905 -0.10404 -0.48551 
3.325 437.0 59.935 14.866 165.474 -0.12439 -0.48010 
3.350 449.0 68.905 14.759 163.135 -0.14294 -0.47150 
3.375 449.0 69.983 14.565 161.219 -0.15672 -0.46087 
3.400 449.0 70.899 14.286 159.454 -0.16785 -0.44783 
3.425 449.0 69.906 14.008 158.107 -0.17514 -0.43583 
3.450 449.0 68.706 13.684 157.017 -0.17950 -0.42321 
3.475 449.0 66.723 13.368 156.189 -0.18163 -0.41158 
3.500 449.0 64.389 13.065 155.466 -0.18288 -0.40066 
3.525 449.0 61.573 12.760 155.285 -0.18014 -0.39137 
3.550 449.0 59.486 12.500 155.289 -0.17667 -0.38391 
3.575 460.0 68.770 12.276 155.398 -0.17299 -0.37781 
3.600 460.0 66.973 12.065 155.668 -0.16844 -0.37250 
3.625 460.0 64.839 11.898 156.126 -0.16330 -0.36896 
3.650 460.0 63.882 11.747 156.765 -0.15727 -0.36633 
3.675 460.0 63.436 11.666 157.453 -0.15186 -0.36577 
3.700 460.0 62.788 11.571 158.089 -0.14666 -0.36463 
3.725 460.0 62.038 11.607 158.731 -0.14299 -0.36732 
3.750 460.0 60.717 11.593 159.487 -0.13797 -0.36876 
3.775 469.0 69.529 11.641 160.006 -0.13514 -0.37143 
3.800 469.0 67.086 11.725 160.424 -0.13334 -0.37495 
3.825 469.0 63.772 11.794 160.873 -0.13112 -0.37807 
3.850 469.0 61.238 11.866 161.145 -0.13006 -0.38085 
3.875 482.0 69.523 11.971 161.072 -0.13164 -0.38387 
3.900 482.0 63.462 12.047 161.051 -0.13257 -0.38612 
3.925 482.0 59.353 12.159 160.953 -0.13439 -0.38925 
3.950 494.0 67.112 12.264 160.888 -0.13592 -0.39225 
3.975 494.0 62.883 12.341 160.529 -0.13919 -0.39371 
4.000 505.0 69.373 12.421 160.220 -0.14217 -0.39533 
4.025 505.0 65.759 12.496 159.974 -0.14468 -0.39694 
4.050 505.0 62.498 12.566 159.654 -0.14767 -0.39821 
4.075 516.0 68.813 12.580 159.166 -0.15121 -0.39735 
4.100 516.0 64.415 12.638 158.744 -0.15480 -0.39794 
4.125 516.0 61.204 12.689 158.352 -0.15810 -0.39835 
4.150 528.0 68.609 12.724 158.116 -0.16016 -0.39872 
4.175 528.0 63.726 12.716 157.555 -0.16395 -0.39690 
4.200 528.0 61.593 12.679 157.008 -0.16729 -0.39426 
4.225 538.0 68.686 12.686 156.749 -0.16916 -0.39370 
4.250 538.0 66.161 12.715 156.319 -0.17247 -0.39326 
4.275 538.0 62.550 12.710 156.057 -0.17421 -0.39232 
4.300 557.0 66.336 12.618 155.777 -0.17493 -0.38881 
4.325 557.0 70.023 12.589 155.285 -0.17787 -0.38645 
4.350 557.0 73.512 12.547 155.042 -0.17896 -0.38451 
4.375 557.0 75.066 12.423 154.681 -0.17970 -0.37983 
4.400 557.0 77.564 12.482 154.739 -0.18010 -0.38168 
4.425 546.0 67.635 12.456 154.618 -0.18057 -0.38057 
4.450 546.0 68.749 12.527 154.568 -0.18185 -0.38243 
4.475 546.0 69.839 12.424 154.491 -0.18096 -0.37925 
4.500 546.0 69.875 12.340 154.022 -0.18290 -0.37536 
4.525 546.0 68.623 12.390 154.192 -0.18247 -0.37732 
4.550 546.0 68.779 12.361 154.083 -0.18279 -0.37617 
4.575 546.0 68.412 12.332 153.976 -0.18309 -0.37499 
4.600 546.0 67.684 12.336 153.832 -0.18408 -0.37463 
4.625 546.0 66.293 12.343 153.981 -0.18321 -0.37531 
4.650 546.0 64.518 12.404 153.993 -0.18398 -0.37710 
4.675 546.0 62.874 12.292 153.672 -0.18450 -0.37286 
4.700 546.0 61.048 12.307 153.569 -0.18539 -0.37295 
4.725 558.0 70.267 12.246 153.505 -0.18494 -0.37102 
4.750 558.0 69.154 12.372 153.794 -0.18484 -0.37554 
4.775 558.0 66.057 12.325 153.495 -0.18613 -0.37323 
4.800 558.0 63.777 12.423 153.594 -0.18687 -0.37634 
4.825 558.0 62.148 12.399 153.399 -0.18780 -0.37503 
4.850 558.0 59.576 12.409 153.062 -0.19016 -0.37421 
4.875 571.0 69.009 12.464 153.196 -0.19006 -0.37620 
4.900 571.0 66.746 12.444 153.010 -0.19099 -0.37500 
4.925 571.0 65.258 12.457 152.764 -0.19280 -0.37456 
4.950 571.0 62.966 12.476 152.720 -0.19335 -0.37493 
4.975 571.0 61.985 12.523 152.641 -0.19456 -0.37600 
5.000 583.0 70.048 12.482 152.361 -0.19579 -0.37389 
5.025 583.0 68.038 12.498 152.282 -0.19653 -0.37406 
5.050 583.0 66.363 12.474 152.208 -0.19666 -0.37313 
5.075 583.0 64.338 12.478 152.056 -0.19771 -0.37272 
5.100 583.0 62.772 12.510 151.665 -0.20073 -0.37226 
5.125 583.0 60.477 12.444 151.528 -0.20063 -0.36994 
5.150 583.0 58.627 12.531 151.652 -0.20114 -0.37280 
5.175 595.0 66.780 12.511 151.435 -0.20224 -0.37148 
5.200 595.0 64.073 12.481 151.197 -0.20332 -0.36980 
5.225 595.0 61.299 12.616 151.012 -0.20660 -0.37289 
5.250 595.0 59.639 12.582 151.174 -0.20501 -0.37252 
5.275 609.0 68.919 12.604 150.966 -0.20670 -0.37238 
5.300 609.0 65.640 12.631 150.768 -0.20841 -0.37241 
5.325 609.0 64.321 12.628 150.736 -0.20857 -0.37220 
5.350 609.0 62.023 12.690 150.519 -0.21095 -0.37313 
5.375 609.0 60.620 12.656 150.240 -0.21221 -0.37115 
5.400 621.0 68.777 12.693 150.451 -0.21142 -0.37294 
5.425 621.0 66.420 12.603 149.985 -0.21304 -0.36877 
5.450 621.0 64.583 12.652 149.965 -0.21394 -0.37003 
5.475 621.0 62.987 12.609 149.947 -0.21337 -0.36878 
5.500 634.0 71.815 12.646 149.706 -0.21552 -0.36890 
5.525 634.0 68.419 12.753 149.721 -0.21712 -0.37186 
5.550 634.0 65.788 12.704 149.791 -0.21589 -0.37079 
5.575 634.0 63.478 12.697 149.371 -0.21848 -0.36900 
5.600 634.0 60.574 12.706 149.194 -0.21976 -0.36857 
5.625 646.0 67.171 12.709 149.092 -0.22047 -0.36826 
5.650 646.0 64.776 12.702 149.333 -0.21881 -0.36901 
5.675 646.0 62.006 12.649 148.721 -0.22188 -0.36522 
5.700 646.0 58.673 12.872 148.840 -0.22474 -0.37167 
5.725 660.0 65.930 12.718 148.523 -0.22426 -0.36629 
5.750 660.0 62.285 12.707 148.275 -0.22567 -0.36504 
5.775 674.0 69.663 12.911 148.375 -0.22839 -0.37089 
5.800 674.0 64.764 12.837 148.292 -0.22771 -0.36858 
5.825 674.0 61.007 12.800 148.112 -0.22825 -0.36687 
5.850 693.0 70.018 12.815 148.101 -0.22858 -0.36723 
5.875 693.0 66.226 12.748 147.426 -0.23174 -0.36273 
5.900 693.0 61.576 12.647 147.390 -0.23025 -0.35990 
5.925 707.0 66.011 12.766 147.708 -0.23026 -0.36435 
5.950 707.0 60.680 12.755 147.542 -0.23113 -0.36340 
5.975 727.0 68.821 12.820 147.528 -0.23232 -0.36506 
6.000 727.0 63.974 12.842 147.366 -0.23373 -0.36499 
6.025 744.0 69.757 12.904 147.015 -0.23702 -0.36519 
6.050 744.0 64.317 12.760 146.415 -0.23832 -0.35891 
6.075 744.0 60.572 12.839 147.451 -0.23314 -0.36527 
6.100 764.0 66.631 12.834 146.859 -0.23680 -0.36269 
6.125 764.0 61.697 12.771 146.167 -0.24006 -0.35815 
6.150 778.0 65.774 12.701 146.224 -0.23848 -0.35656 
6.175 778.0 61.109 12.804 145.659 -0.24383 -0.35688 
6.200 778.0 56.251 12.908 146.467 -0.24056 -0.36299 
6.225 780.0 55.197 12.712 145.397 -0.24380 -0.35337 
6.250 780.0 50.346 12.718 146.029 -0.23999 -0.35618 
6.275 780.0 47.301 12.828 146.882 -0.23655 -0.36262 
6.300 780.0 43.600 12.605 145.112 -0.24362 -0.34939 
6.325 780.0 40.901 12.783 145.982 -0.24143 -0.35769 
6.350 780.0 37.349 12.994 145.099 -0.25071 -0.35938 
6.375 780.0 33.602 12.621 146.022 -0.23833 -0.35363 
6.400 780.0 30.466 12.776 145.896 -0.24185 -0.35715 
6.425 780.0 27.441 13.036 144.755 -0.25363 -0.35895 
6.450 780.0 24.177 12.782 146.172 -0.24022 -0.35846 
6.475 780.0 21.428 12.826 146.690 -0.23774 -0.36179 
6.500 780.0 18.315 12.973 145.073 -0.25050 -0.35871 

# MINIMA:
0.600 407.0 18.315 5.502 3.572 -0.88251 -0.81518 

# MAXIMA:
6.500 3911.6 79.666 40.646 356.807 0.91237 0.97629 

# PEAKS:

# END SPECTRUM


# SPECTRUM:
2

# START TIME:
15:29:59

# END TIME:
15:40:33

# THETA ANGLE:
0.00 ø

# INCIDENCE ANGLE:
60.00 ø

# ACCUMULATION NUMBER:
1

# ELLIPSOMETRIC CONFIGURATION:
+90.00 øModulator
-45.00 øAnalyser

# INTEGRATION TIME:
500 ms

# FIRST POINT:
0.6000 eV

# LAST POINT:
6.5000 eV

# INCREMENT:
0.0250 eV

# NUMBER OF POINTS:
237

# DATA:
eV Hv S0 Psi Delta Is Ic 
0.600 3098.8 62.200 18.666 228.927 0.45718 -0.39844 
0.625 2698.8 79.828 19.652 227.081 0.46389 -0.43135 
0.650 2501.9 79.678 20.714 226.059 0.47645 -0.45916 
0.675 2400.3 76.790 21.609 223.549 0.47179 -0.49631 
0.700 1898.7 79.962 21.659 219.870 0.43978 -0.52654 
0.725 1701.8 79.486 22.017 215.707 0.40567 -0.56441 
0.750 1600.2 72.940 22.142 211.429 0.36408 -0.59579 
0.775 1498.6 76.889 22.304 206.429 0.31256 -0.62887 
0.800 997.0 65.274 22.520 201.135 0.25514 -0.65999 
0.825 1295.4 63.043 22.510 195.805 0.19267 -0.68062 
0.850 1295.4 60.495 22.571 190.248 0.12612 -0.69756 
0.875 997.0 72.736 22.538 184.526 0.05587 -0.70583 
0.900 1098.6 63.009 22.601 178.844 -0.01432 -0.70944 
0.925 1200.2 61.519 22.558 173.102 -0.08509 -0.70341 
0.950 1301.8 67.420 22.622 167.367 -0.15530 -0.69292 
0.975 1003.3 71.762 22.576 161.479 -0.22521 -0.67226 
1.000 1301.8 70.285 22.593 156.068 -0.28778 -0.64842 
1.025 1301.8 76.395 22.545 150.631 -0.34734 -0.61721 
1.050 901.7 79.921 22.471 145.271 -0.40243 -0.58056 
1.075 1301.8 75.580 22.366 140.314 -0.44944 -0.54161 
1.100 1200.2 66.042 22.299 135.029 -0.49622 -0.49673 
1.125 1200.2 65.079 22.234 129.345 -0.54173 -0.44411 
1.150 1200.2 74.604 22.147 122.731 -0.58746 -0.37759 
1.175 1200.2 68.023 22.471 112.179 -0.65412 -0.26665 
1.200 1397.0 62.973 24.382 97.184 -0.74609 -0.09404 
1.225 1200.2 76.078 27.767 82.622 -0.81764 0.10587 
1.250 800.1 63.573 31.685 69.816 -0.83902 0.30844 
1.275 1397.0 61.799 36.149 56.261 -0.79221 0.52911 
1.300 1498.6 62.697 40.601 38.070 -0.60937 0.77799 
1.325 1898.7 61.351 40.771 15.942 -0.27168 0.95108 
1.350 1397.0 74.941 43.322 345.997 0.24155 0.96862 
1.375 1797.1 64.819 40.669 322.690 0.59921 0.78630 
1.400 1600.2 77.199 36.760 300.588 0.82549 0.48795 
1.425 3898.9 40.690 32.197 286.895 0.86287 0.26208 
1.450 4000.5 22.022 28.869 274.338 0.84319 0.06396 
1.475 780.0 99.109 25.667 262.687 0.77445 -0.09938 
1.500 553.0 65.822 25.046 254.145 0.73790 -0.20957 
1.525 652.0 72.554 23.720 245.245 0.66889 -0.30843 
1.550 589.0 74.551 22.893 237.325 0.60332 -0.38695 
1.575 624.0 67.173 22.241 229.038 0.52912 -0.45934 
1.600 624.0 73.150 21.889 220.953 0.45349 -0.52253 
1.625 562.0 72.715 21.581 213.584 0.37839 -0.56987 
1.650 575.0 67.424 21.425 205.701 0.29493 -0.61280 
1.675 562.0 69.134 21.304 198.110 0.21043 -0.64345 
1.700 551.0 70.730 21.115 190.693 0.12471 -0.66044 
1.725 541.0 69.144 21.103 183.231 0.03786 -0.67073 
1.750 531.0 71.106 20.982 175.696 -0.05018 -0.66677 
1.775 520.0 69.046 20.894 168.456 -0.13336 -0.65290 
1.800 502.0 69.658 20.824 160.938 -0.21703 -0.62811 
1.825 502.0 76.044 20.718 153.444 -0.29586 -0.59196 
1.850 491.0 71.300 20.625 145.862 -0.37002 -0.54574 
1.875 491.0 77.459 20.563 138.252 -0.43794 -0.49071 
1.900 477.0 68.972 20.535 130.372 -0.50053 -0.42555 
1.925 477.0 74.022 20.541 122.503 -0.55420 -0.35310 
1.950 477.0 76.963 20.607 114.209 -0.60092 -0.27018 
1.975 468.0 69.341 20.767 105.168 -0.63998 -0.17349 
2.000 468.0 68.930 21.120 95.659 -0.66896 -0.06629 
2.025 468.0 64.349 21.580 84.965 -0.68139 0.06003 
2.050 479.0 68.109 22.221 72.981 -0.66954 0.20494 
2.075 479.0 70.393 22.911 58.983 -0.61463 0.36956 
2.100 479.0 65.529 23.571 42.212 -0.49252 0.54294 
2.125 479.0 61.870 23.787 23.575 -0.29522 0.67653 
2.150 479.0 60.431 23.435 2.593 -0.03301 0.72906 
2.175 479.0 62.411 22.216 341.172 0.22593 0.66259 
2.200 479.0 68.514 20.607 321.132 0.41346 0.51299 
2.225 479.0 78.858 18.892 302.474 0.51688 0.32897 
2.250 462.0 70.524 17.502 286.269 0.55065 0.16070 
2.275 453.0 70.244 16.446 271.495 0.54288 0.01417 
2.300 444.0 70.016 15.639 257.949 0.50775 -0.10840 
2.325 435.0 68.545 15.083 245.297 0.45652 -0.21000 
2.350 435.0 77.462 14.743 234.172 0.39907 -0.28812 
2.375 423.0 69.761 14.561 224.286 0.33980 -0.34838 
2.400 423.0 76.385 14.436 214.574 0.27400 -0.39758 
2.425 413.0 71.112 14.399 205.547 0.20774 -0.43462 
2.450 402.0 70.269 14.352 197.405 0.14366 -0.45830 
2.475 402.0 76.565 14.325 189.830 0.08185 -0.47241 
2.500 418.0 67.801 14.265 182.228 0.01857 -0.47725 
2.525 418.0 72.771 14.205 175.040 -0.04114 -0.47398 
2.550 418.0 71.157 14.095 168.136 -0.09711 -0.46229 
2.575 418.0 79.242 13.874 161.622 -0.14679 -0.44185 
2.600 418.0 73.926 13.689 154.739 -0.19624 -0.41588 
2.625 403.0 69.834 13.437 148.093 -0.23891 -0.38372 
2.650 403.0 76.811 13.122 141.658 -0.27432 -0.34683 
2.675 403.0 67.298 12.791 135.554 -0.30236 -0.30826 
2.700 403.0 61.960 12.371 129.071 -0.32493 -0.26379 
2.725 413.0 68.850 11.797 121.917 -0.33975 -0.21162 
2.750 413.0 71.752 11.231 115.015 -0.34624 -0.16157 
2.775 413.0 62.866 10.600 108.713 -0.34250 -0.11602 
2.800 413.0 60.222 9.828 101.700 -0.32939 -0.06821 
2.825 413.0 58.719 8.925 94.447 -0.30560 -0.02377 
2.850 424.0 67.708 7.876 86.456 -0.27097 0.01678 
2.875 424.0 64.886 6.753 78.612 -0.22895 0.04611 
2.900 424.0 63.438 5.590 70.970 -0.18330 0.06322 
2.925 424.0 62.213 4.418 63.097 -0.13699 0.06951 
2.950 424.0 62.620 3.083 54.853 -0.08782 0.06183 
2.975 424.0 60.373 1.830 45.562 -0.04557 0.04469 
3.000 424.0 59.713 0.568 28.324 -0.00941 0.01745 
3.025 434.0 70.189 0.622 230.555 0.01677 -0.01379 
3.050 434.0 69.033 1.662 216.564 0.03455 -0.04658 
3.075 434.0 68.269 2.602 208.192 0.04284 -0.07993 
3.100 420.0 70.086 3.551 201.135 0.04458 -0.11533 
3.125 420.0 71.183 4.380 195.174 0.03986 -0.14698 
3.150 420.0 70.129 5.104 189.492 0.02922 -0.17479 
3.175 420.0 68.811 5.792 184.140 0.01450 -0.20029 
3.200 420.0 67.179 6.347 179.172 -0.00318 -0.21971 
3.225 420.0 66.339 6.786 174.754 -0.02145 -0.23368 
3.250 420.0 65.599 7.201 170.091 -0.04280 -0.24502 
3.275 420.0 63.875 7.577 165.552 -0.06523 -0.25316 
3.300 420.0 61.567 7.847 161.081 -0.08771 -0.25589 
3.325 429.0 66.952 8.076 156.464 -0.11109 -0.25506 
3.350 429.0 64.074 8.200 151.994 -0.13258 -0.24929 
3.375 429.0 64.152 8.283 148.065 -0.15082 -0.24197 
3.400 429.0 65.691 8.232 144.493 -0.16461 -0.23071 
3.425 429.0 65.291 8.137 141.132 -0.17585 -0.21819 
