## SPECTRUM TYPE:
Spectroscopic

## DATE:
11/9/2011

## COMMENTS:

## NUMBER OF SPECTRUM:
5

## ELLIPSOMETRIC CONFIGURATION:
+90.00 øModulator
+45.00 øAnalyser

## UNIT:
eV


# SPECTRUM:
1

# START TIME:
16:14:18

# END TIME:
16:25:52

# THETA ANGLE:
0.00 ø

# INCIDENCE ANGLE:
55.00 ø

# ACCUMULATION NUMBER:
1

# ELLIPSOMETRIC CONFIGURATION:
+90.00 øModulator
+45.00 øAnalyser

# INTEGRATION TIME:
500 ms

# FIRST POINT:
0.6000 eV

# LAST POINT:
6.5000 eV

# INCREMENT:
0.0250 eV

# NUMBER OF POINTS:
237

# DATA:
eV Hv S0 Psi Delta Is Ic 
0.600 1498.6 59.579 23.283 213.224 -0.39788 0.60746 
0.625 1397.0 73.254 24.531 212.178 -0.40230 0.63938 
0.650 1295.4 68.750 25.671 210.992 -0.40209 0.66940 
0.675 1295.4 67.646 25.087 210.498 -0.38976 0.66173 
0.700 1193.8 75.950 25.314 207.063 -0.35171 0.68840 
0.725 1092.2 73.257 26.366 203.912 -0.32257 0.72750 
0.750 1092.2 76.891 26.065 200.856 -0.28105 0.73769 
0.775 990.6 75.719 27.085 196.937 -0.23619 0.77559 
0.800 692.2 74.782 27.559 193.086 -0.18573 0.79903 
0.825 889.0 69.348 27.424 189.123 -0.12964 0.80729 
0.850 889.0 67.006 26.913 185.244 -0.07378 0.80384 
0.875 692.2 75.869 27.341 181.061 -0.01511 0.81582 
0.900 793.8 74.511 27.072 176.973 0.04280 0.80936 
0.925 895.4 73.196 27.483 172.858 0.10180 0.81247 
0.950 895.4 62.665 27.901 168.869 0.15968 0.81154 
0.975 698.5 64.802 27.581 164.725 0.21624 0.79178 
1.000 997.0 76.559 26.957 160.703 0.26707 0.76273 
1.025 997.0 76.923 26.836 156.829 0.31700 0.74066 
1.050 698.5 77.949 26.569 153.145 0.36142 0.71379 
1.075 997.0 65.633 26.593 149.658 0.40443 0.69093 
1.100 997.0 66.848 25.927 145.841 0.44158 0.65077 
1.125 1098.6 77.349 25.764 142.139 0.48051 0.61812 
1.150 1003.3 62.287 25.167 137.153 0.52347 0.56438 
1.175 1104.9 63.456 24.558 128.469 0.59194 0.47033 
1.200 1505.0 68.708 25.211 112.961 0.70969 0.30067 
1.225 1403.4 78.266 27.977 94.515 0.82601 0.06523 
1.250 1003.3 62.081 32.443 77.150 0.88279 -0.20137 
1.275 2603.5 64.287 36.681 58.358 0.81570 -0.50265 
1.300 3905.3 53.291 38.845 29.328 0.47855 -0.85179 
1.325 3905.3 38.871 38.933 357.533 -0.04207 -0.97675 
1.350 3905.3 78.952 39.394 317.999 -0.65638 -0.72895 
1.375 3403.6 79.192 36.760 293.379 -0.88019 -0.38051 
1.400 1905.0 78.232 32.999 272.757 -0.91248 -0.04394 
1.425 3905.3 37.611 29.878 260.040 -0.85088 0.14941 
1.450 3905.3 22.107 27.894 248.673 -0.77034 0.30075 
1.475 727.0 75.507 26.719 237.060 -0.67409 0.43676 
1.500 533.0 72.338 26.467 230.465 -0.61539 0.50793 
1.525 604.0 63.822 26.288 222.707 -0.53864 0.58357 
1.550 549.0 73.397 25.748 216.956 -0.47048 0.62536 
1.575 577.0 65.448 25.773 210.654 -0.39927 0.67368 
1.600 577.0 75.357 26.067 204.590 -0.32851 0.71785 
1.625 516.0 72.798 25.999 199.353 -0.26113 0.74347 
1.650 529.0 69.654 26.088 193.602 -0.18577 0.76775 
1.675 515.0 68.497 26.128 188.381 -0.11525 0.78230 
1.700 505.0 70.589 26.089 183.058 -0.04214 0.78880 
1.725 505.0 78.327 25.957 177.779 0.03051 0.78649 
1.750 489.0 69.359 25.771 172.571 0.10125 0.77648 
1.775 489.0 76.195 25.641 167.419 0.16995 0.76151 
1.800 471.0 70.792 25.473 161.941 0.24072 0.73829 
1.825 471.0 71.973 25.196 156.634 0.30555 0.70723 
1.850 471.0 74.550 24.801 151.026 0.36891 0.66623 
1.875 471.0 73.936 24.470 145.392 0.42825 0.62060 
1.900 471.0 75.134 24.065 139.240 0.48619 0.56405 
1.925 471.0 72.656 23.579 132.739 0.53852 0.49761 
1.950 471.0 68.009 23.088 125.491 0.58743 0.41887 
1.975 471.0 62.818 22.663 117.047 0.63334 0.32336 
2.000 485.0 67.797 22.216 107.257 0.66855 0.20768 
2.025 499.0 67.101 21.790 94.934 0.68681 0.05929 
2.050 518.0 67.652 21.322 79.964 0.66708 -0.11806 
2.075 518.0 59.619 20.616 59.746 0.56934 -0.33208 
2.100 539.0 67.043 19.898 33.597 0.35417 -0.53313 
2.125 539.0 62.926 18.955 3.793 0.04065 -0.61307 
2.150 539.0 70.550 18.165 331.415 -0.28346 -0.52022 
2.175 523.0 70.791 17.781 301.547 -0.49564 -0.30429 
2.200 503.0 70.146 17.839 277.752 -0.57789 -0.07866 
2.225 485.0 70.485 18.120 258.622 -0.57955 0.11662 
2.250 470.0 71.937 18.527 244.214 -0.54257 0.26212 
2.275 456.0 70.109 18.953 233.031 -0.49085 0.36946 
2.300 446.0 70.421 19.360 223.484 -0.43046 0.45386 
2.325 436.0 68.955 19.746 215.282 -0.36733 0.51915 
2.350 436.0 77.854 20.091 208.304 -0.30594 0.56809 
2.375 425.0 71.021 20.369 202.073 -0.24524 0.60478 
2.400 425.0 77.036 20.546 196.223 -0.18362 0.63109 
2.425 415.0 70.639 20.669 190.806 -0.12383 0.64878 
2.450 405.0 69.043 20.706 185.860 -0.06754 0.65802 
2.475 405.0 73.212 20.655 181.183 -0.01363 0.65998 
2.500 388.0 72.153 20.717 176.433 0.04117 0.66048 
2.525 388.0 75.451 20.419 172.050 0.09044 0.64764 
2.550 388.0 70.583 20.061 167.716 0.13710 0.62966 
2.575 388.0 76.048 19.697 163.652 0.17864 0.60900 
2.600 388.0 65.796 19.295 159.485 0.21859 0.58419 
2.625 388.0 76.275 18.718 155.334 0.25368 0.55242 
2.650 388.0 78.040 18.053 151.386 0.28221 0.51730 
2.675 388.0 63.739 17.312 147.664 0.30392 0.48009 
2.700 401.0 68.848 16.406 143.735 0.32053 0.43691 
2.725 409.0 68.923 15.326 139.765 0.32930 0.38919 
2.750 409.0 65.426 14.118 136.141 0.32781 0.34113 
2.775 421.0 66.239 12.867 133.310 0.31595 0.29784 
2.800 430.0 69.137 11.435 130.936 0.29360 0.25465 
2.825 430.0 64.496 9.938 130.266 0.25942 0.21975 
2.850 440.0 68.831 8.262 131.474 0.21310 0.18836 
2.875 440.0 64.795 6.839 137.161 0.16078 0.17339 
2.900 440.0 63.641 5.893 147.911 0.10852 0.17306 
2.925 440.0 63.098 5.574 162.074 0.05951 0.18396 
2.950 440.0 65.903 5.952 176.233 0.01355 0.20581 
2.975 440.0 66.702 6.882 185.216 -0.02163 0.23693 
3.000 440.0 69.527 8.031 189.563 -0.04596 0.27283 
3.025 440.0 71.635 9.172 190.991 -0.06001 0.30895 
3.050 440.0 73.818 10.199 190.561 -0.06388 0.34265 
3.075 440.0 75.691 11.128 189.446 -0.06216 0.37361 
3.100 418.0 70.455 11.967 187.530 -0.05317 0.40219 
3.125 418.0 74.077 12.735 185.420 -0.04062 0.42813 
3.150 418.0 74.827 13.338 182.947 -0.02308 0.44835 
3.175 418.0 73.876 13.857 180.429 -0.00348 0.46505 
3.200 418.0 72.880 14.212 178.026 0.01639 0.47571 
3.225 418.0 71.519 14.530 175.732 0.03615 0.48437 
3.250 418.0 71.613 14.771 173.334 0.05723 0.48972 
3.275 418.0 69.283 14.903 170.734 0.08004 0.49058 
3.300 418.0 65.451 14.935 168.352 0.10056 0.48779 
3.325 418.0 60.337 14.850 165.940 0.12036 0.48061 
3.350 429.0 67.730 14.785 163.725 0.13830 0.47372 
3.375 429.0 67.189 14.549 161.662 0.15300 0.46159 
3.400 429.0 67.305 14.297 159.988 0.16379 0.44970 
3.425 429.0 65.451 13.986 158.579 0.17130 0.43664 
3.450 429.0 63.309 13.708 157.575 0.17565 0.42563 
3.475 429.0 60.172 13.356 156.661 0.17808 0.41273 
3.500 441.0 70.146 13.054 156.174 0.17777 0.40257 
3.525 441.0 66.456 12.778 155.794 0.17687 0.39345 
3.550 441.0 63.407 12.483 155.762 0.17328 0.38487 
3.575 441.0 60.755 12.221 155.896 0.16898 0.37770 
3.600 450.0 67.814 12.011 156.248 0.16397 0.37262 
3.625 450.0 66.107 11.868 156.735 0.15899 0.36979 
3.650 450.0 64.231 11.738 157.444 0.15280 0.36788 
3.675 450.0 63.087 11.629 158.255 0.14630 0.36678 
3.700 450.0 61.788 11.609 158.922 0.14177 0.36784 
3.725 450.0 60.847 11.536 159.524 0.13709 0.36713 
3.750 450.0 60.132 11.558 160.199 0.13299 0.36938 
3.775 460.0 68.562 11.610 160.659 0.13058 0.37203 
3.800 460.0 65.573 11.681 161.227 0.12761 0.37543 
3.825 460.0 63.513 11.751 161.446 0.12689 0.37805 
3.850 460.0 60.021 11.847 161.697 0.12620 0.38153 
3.875 474.0 68.942 11.938 161.899 0.12575 0.38472 
3.900 474.0 63.928 11.994 161.867 0.12653 0.38635 
3.925 474.0 58.805 12.128 161.862 0.12788 0.39039 
3.950 488.0 67.785 12.240 161.705 0.13008 0.39343 
3.975 488.0 63.334 12.295 161.409 0.13266 0.39440 
4.000 488.0 59.839 12.380 161.044 0.13605 0.39611 
4.025 500.0 67.433 12.432 160.731 0.13875 0.39691 
4.050 500.0 63.269 12.513 160.276 0.14277 0.39820 
4.075 500.0 59.328 12.518 160.070 0.14425 0.39784 
4.100 513.0 66.870 12.577 159.636 0.14791 0.39850 
4.125 513.0 62.066 12.607 159.196 0.15130 0.39822 
4.150 513.0 58.468 12.647 158.849 0.15417 0.39849 
4.175 527.0 67.241 12.619 158.352 0.15729 0.39630 
4.200 527.0 64.164 12.665 157.957 0.16057 0.39655 
4.225 527.0 60.995 12.605 157.507 0.16295 0.39354 
4.250 539.0 69.670 12.586 157.069 0.16572 0.39172 
4.275 539.0 66.069 12.594 156.820 0.16753 0.39124 
4.300 522.0 69.510 12.667 156.454 0.17093 0.39225 
4.325 522.0 72.674 12.430 155.979 0.17114 0.38400 
4.350 522.0 75.990 12.350 155.512 0.17321 0.38029 
4.375 522.0 77.922 12.395 155.611 0.17313 0.38187 
4.400 522.0 80.246 12.277 155.380 0.17311 0.37777 
4.425 511.0 69.104 12.306 155.283 0.17414 0.37831 
4.450 511.0 70.042 12.380 155.097 0.17636 0.37987 
4.475 511.0 71.019 12.211 154.886 0.17548 0.37438 
4.500 511.0 70.699 12.261 154.896 0.17609 0.37583 
4.525 511.0 70.472 12.234 154.715 0.17691 0.37451 
4.550 511.0 69.905 12.323 154.839 0.17729 0.37744 
4.575 511.0 69.074 12.097 154.514 0.17634 0.36995 
4.600 511.0 68.003 12.316 154.695 0.17816 0.37680 
4.625 511.0 67.495 12.074 154.313 0.17732 0.36866 
4.650 511.0 65.069 12.147 154.466 0.17734 0.37124 
4.675 511.0 63.596 12.185 154.415 0.17819 0.37216 
4.700 511.0 61.846 12.269 154.586 0.17823 0.37511 
4.725 511.0 59.905 12.145 154.333 0.17818 0.37077 
4.750 523.0 69.678 12.148 154.399 0.17779 0.37106 
4.775 523.0 66.790 12.171 154.082 0.18015 0.37072 
4.800 523.0 64.821 12.291 154.237 0.18081 0.37465 
4.825 523.0 62.768 12.297 154.102 0.18178 0.37440 
4.850 523.0 61.213 12.227 153.770 0.18296 0.37132 
4.875 534.0 68.355 12.369 154.174 0.18230 0.37667 
4.900 534.0 65.439 12.381 153.654 0.18589 0.37535 
4.925 534.0 63.221 12.320 153.802 0.18406 0.37408 
4.950 534.0 61.581 12.316 153.797 0.18403 0.37395 
4.975 534.0 59.581 12.344 153.421 0.18687 0.37353 
5.000 546.0 67.764 12.364 153.272 0.18814 0.37363 
5.025 546.0 65.957 12.300 153.208 0.18764 0.37158 
5.050 546.0 64.144 12.351 153.057 0.18935 0.37253 
5.075 546.0 61.683 12.369 152.731 0.19172 0.37196 
5.100 558.0 69.776 12.391 152.640 0.19264 0.37227 
5.125 558.0 67.578 12.359 152.738 0.19153 0.37170 
5.150 558.0 64.235 12.513 152.519 0.19521 0.37529 
5.175 558.0 61.851 12.453 152.420 0.19498 0.37328 
5.200 569.0 68.363 12.394 152.436 0.19401 0.37168 
5.225 569.0 64.820 12.499 152.156 0.19737 0.37366 
5.250 569.0 61.453 12.409 151.905 0.19767 0.37028 
5.275 569.0 59.708 12.477 151.704 0.20000 0.37149 
5.300 582.0 67.963 12.555 152.280 0.19739 0.37567 
5.325 582.0 65.019 12.542 151.606 0.20160 0.37293 
5.350 582.0 62.831 12.525 151.554 0.20169 0.37230 
5.375 582.0 60.728 12.540 151.387 0.20300 0.37212 
5.400 595.0 69.444 12.502 151.388 0.20241 0.37106 
5.425 595.0 66.486 12.541 151.633 0.20140 0.37300 
5.450 595.0 64.013 12.563 151.519 0.20249 0.37324 
5.475 595.0 61.579 12.611 151.137 0.20570 0.37320 
5.500 608.0 69.724 12.590 150.922 0.20677 0.37183 
5.525 608.0 66.348 12.615 151.082 0.20613 0.37311 
5.550 608.0 63.572 12.498 150.602 0.20742 0.36814 
5.575 608.0 59.865 12.595 150.645 0.20865 0.37098 
5.600 621.0 67.102 12.480 150.743 0.20623 0.36815 
5.625 621.0 63.688 12.440 150.094 0.20976 0.36471 
5.650 621.0 60.057 12.586 150.412 0.21002 0.36988 
5.675 636.0 68.926 12.568 150.037 0.21214 0.36799 
5.700 636.0 64.594 12.636 150.103 0.21279 0.37009 
5.725 636.0 61.303 12.544 149.827 0.21311 0.36655 
5.750 654.0 70.921 12.616 149.484 0.21646 0.36723 
5.775 654.0 66.642 12.672 149.654 0.21626 0.36939 
5.800 654.0 62.526 12.594 149.367 0.21686 0.36620 
5.825 667.0 68.173 12.665 149.454 0.21744 0.36846 
5.850 667.0 61.564 12.480 149.244 0.21580 0.36264 
5.875 681.0 67.756 12.713 149.152 0.22016 0.36861 
5.900 681.0 62.198 12.689 149.236 0.21922 0.36827 
5.925 681.0 56.832 12.763 149.411 0.21929 0.37096 
5.950 707.0 69.254 12.676 148.798 0.22182 0.36624 
5.975 707.0 62.565 12.415 148.558 0.21905 0.35827 
6.000 723.0 67.873 12.604 148.368 0.22336 0.36262 
6.025 723.0 62.701 12.590 148.058 0.22509 0.36103 
6.050 723.0 56.982 12.495 148.088 0.22331 0.35860 
6.075 746.0 66.399 12.589 148.591 0.22171 0.36309 
6.100 746.0 61.057 12.476 147.770 0.22499 0.35686 
6.125 766.0 66.957 12.750 148.287 0.22630 0.36623 
6.150 766.0 62.793 12.774 148.027 0.22836 0.36584 
6.175 766.0 58.033 12.647 147.972 0.22659 0.36223 
6.200 780.0 61.290 12.104 144.580 0.23765 0.33415 
6.225 780.0 56.597 12.381 147.073 0.22768 0.35157 
6.250 780.0 52.416 12.491 147.806 0.22501 0.35740 
6.275 780.0 48.160 12.614 148.356 0.22361 0.36284 
6.300 780.0 44.572 12.674 147.429 0.23047 0.36078 
6.325 780.0 41.189 12.722 147.411 0.23140 0.36199 
6.350 780.0 37.034 12.640 147.795 0.22760 0.36135 
6.375 780.0 33.173 12.727 146.899 0.23471 0.36004 
6.400 780.0 29.689 12.658 147.294 0.23105 0.35981 
6.425 780.0 26.606 12.956 147.711 0.23343 0.36941 
6.450 780.0 23.329 12.284 147.323 0.22448 0.34998 
6.475 780.0 20.730 12.288 145.854 0.23345 0.34420 
6.500 780.0 17.701 12.152 144.930 0.23649 0.33686 

# MINIMA:
0.600 388.0 17.701 5.574 3.793 -0.91248 -0.97675 

# MAXIMA:
6.500 3905.3 80.246 39.394 357.533 0.88279 0.81582 

# PEAKS:

# END SPECTRUM


# SPECTRUM:
2

# START TIME:
16:26:36

# END TIME:
16:37:14

# THETA ANGLE:
0.00 ø

# INCIDENCE ANGLE:
60.00 ø

# ACCUMULATION NUMBER:
1

# ELLIPSOMETRIC CONFIGURATION:
+90.00 øModulator
+45.00 øAnalyser

# INTEGRATION TIME:
500 ms

# FIRST POINT:
0.6000 eV

# LAST POINT:
6.5000 eV

# INCREMENT:
0.0250 eV

# NUMBER OF POINTS:
237

# DATA:
eV Hv S0 Psi Delta Is Ic 
0.600 1701.8 63.433 18.776 228.249 -0.45470 0.40586 
0.625 1505.0 75.045 19.427 227.960 -0.46591 0.42009 
0.650 1403.4 74.190 20.336 227.135 -0.47769 0.44336 
0.675 1403.4 74.770 21.634 223.845 -0.47479 0.49433 
0.700 1206.5 71.477 21.585 219.912 -0.43897 0.52478 
0.725 1104.9 69.106 23.038 215.546 -0.41873 0.58604 
0.750 1104.9 74.654 22.537 211.299 -0.36782 0.60498 
0.775 1003.3 73.667 22.042 206.660 -0.31216 0.62174 
0.800 704.9 76.513 22.543 201.388 -0.25825 0.65939 
0.825 901.7 70.411 22.595 195.920 -0.19460 0.68224 
0.850 901.7 67.783 22.324 190.388 -0.12671 0.69122 
0.875 704.9 79.774 22.288 184.590 -0.05617 0.69960 
0.900 806.5 76.998 22.470 178.871 0.01391 0.70623 
0.925 908.1 77.202 22.726 173.166 0.08480 0.70759 
0.950 908.1 64.332 22.477 167.334 0.15492 0.68935 
0.975 711.2 69.981 22.319 161.598 0.22180 0.66669 
1.000 1009.7 79.066 22.458 156.117 0.28586 0.64560 
1.025 1009.7 79.783 22.671 150.894 0.34601 0.62149 
1.050 628.7 60.497 22.285 145.251 0.40000 0.57662 
1.075 1028.7 71.058 22.392 140.445 0.44859 0.54313 
1.100 1028.7 72.355 22.274 135.140 0.49483 0.49725 
1.125 1028.7 64.993 22.398 129.849 0.54094 0.45147 
1.150 1028.7 69.057 22.130 122.957 0.58561 0.37967 
1.175 1130.3 72.401 22.392 112.470 0.65095 0.26924 
1.200 1428.8 71.551 24.310 97.186 0.74445 0.09386 
1.225 1231.9 74.829 27.707 82.817 0.81681 -0.10294 
1.250 850.9 60.762 31.637 70.069 0.83968 -0.30447 
1.275 1651.0 62.396 35.720 56.439 0.78996 -0.52407 
1.300 2152.7 60.469 39.962 38.191 0.60875 -0.77383 
1.325 3454.4 61.389 40.358 16.846 0.28601 -0.94455 
1.350 2254.3 79.033 41.697 346.077 -0.23902 -0.96417 
1.375 2451.1 62.811 41.189 322.992 -0.59660 -0.79150 
1.400 1949.5 80.585 36.632 300.501 -0.82512 -0.48605 
1.425 3949.7 36.302 32.408 286.931 -0.86572 -0.26354 
1.450 3949.7 21.126 29.125 274.659 -0.84754 -0.06907 
1.475 780.0 112.359 26.057 261.575 -0.78072 0.11564 
1.500 535.0 66.482 25.069 254.277 -0.73888 0.20801 
1.525 622.0 73.388 23.852 245.077 -0.67080 0.31170 
1.550 553.0 72.708 23.119 236.988 -0.60562 0.39347 
1.575 584.0 67.583 22.490 228.846 -0.53224 0.46518 
1.600 584.0 78.245 21.889 221.018 -0.45407 0.52201 
1.625 506.0 61.637 21.643 213.702 -0.38044 0.57041 
1.650 529.0 68.583 21.547 205.728 -0.29658 0.61548 
1.675 516.0 70.106 21.312 198.246 -0.21202 0.64314 
1.700 502.0 67.946 21.238 190.674 -0.12508 0.66361 
1.725 502.0 76.354 21.061 183.359 -0.03930 0.66955 
1.750 489.0 71.765 20.955 175.937 0.04732 0.66628 
1.775 489.0 79.141 20.885 168.517 0.13261 0.65280 
1.800 467.0 70.299 20.861 160.957 0.21714 0.62910 
1.825 467.0 72.915 20.740 153.588 0.29463 0.59323 
1.850 467.0 76.029 20.643 146.028 0.36870 0.54720 
1.875 467.0 77.301 20.633 138.579 0.43635 0.49457 
1.900 467.0 80.234 20.534 130.578 0.49897 0.42733 
1.925 457.0 68.500 20.553 122.700 0.55326 0.35519 
1.950 457.0 67.366 20.588 114.349 0.59980 0.27144 
1.975 457.0 64.764 20.719 105.520 0.63767 0.17709 
2.000 457.0 60.242 21.056 95.915 0.66702 0.06911 
2.025 473.0 67.583 21.518 85.084 0.67996 -0.05848 
2.050 487.0 68.076 22.110 73.200 0.66765 -0.20157 
2.075 487.0 64.784 22.726 58.840 0.60985 -0.36876 
2.100 500.0 68.758 23.447 41.929 0.48785 -0.54316 
2.125 500.0 61.450 23.740 23.278 0.29127 -0.67704 
2.150 500.0 59.582 23.321 2.503 0.03176 -0.72638 
2.175 500.0 64.893 22.204 341.000 -0.22782 -0.66165 
2.200 500.0 76.563 20.589 320.943 -0.41486 -0.51127 
2.225 481.0 71.271 18.918 302.131 -0.51946 -0.32625 
2.250 466.0 69.494 17.558 285.828 -0.55343 -0.15689 
2.275 454.0 68.854 16.531 271.097 -0.54545 -0.01045 
2.300 444.0 69.789 15.725 257.516 -0.50942 0.11279 
2.325 436.0 71.451 15.205 244.946 -0.45854 0.21435 
2.350 427.0 69.177 14.906 234.153 -0.40299 0.29115 
2.375 427.0 76.432 14.680 224.164 -0.34159 0.35171 
2.400 417.0 70.653 14.574 214.773 -0.27779 0.40009 
2.425 417.0 77.300 14.486 205.934 -0.21183 0.43559 
2.450 402.0 69.880 14.436 197.802 -0.14763 0.45975 
2.475 402.0 75.396 14.373 190.253 -0.08560 0.47324 
2.500 387.0 70.985 14.337 182.518 -0.02108 0.47935 
2.525 387.0 75.061 14.258 175.268 0.03938 0.47576 
2.550 387.0 71.279 14.187 168.436 0.09527 0.46559 
2.575 387.0 77.960 13.937 161.940 0.14493 0.44448 
2.600 387.0 69.710 13.736 155.259 0.19306 0.41896 
2.625 379.0 69.837 13.411 148.549 0.23544 0.38494 
2.650 379.0 72.800 13.162 142.368 0.27077 0.35119 
2.675 379.0 60.019 12.722 135.967 0.29862 0.30887 
2.700 393.0 67.546 12.296 129.438 0.32140 0.26436 
2.725 393.0 59.317 11.781 122.517 0.33709 0.21489 
2.750 403.0 69.816 11.168 115.653 0.34259 0.16453 
2.775 413.0 68.664 10.502 108.976 0.33894 0.11655 
2.800 413.0 62.757 9.703 101.872 0.32517 0.06836 
2.825 423.0 69.487 8.822 94.636 0.30212 0.02450 
2.850 423.0 62.552 7.770 86.601 0.26744 -0.01589 
2.875 433.0 69.233 6.658 79.105 0.22619 -0.04354 
2.900 433.0 66.212 5.503 71.078 0.18061 -0.06191 
2.925 433.0 64.855 4.304 63.247 0.13367 -0.06738 
2.950 433.0 65.419 2.987 54.394 0.08461 -0.06059 
2.975 433.0 64.566 1.710 44.455 0.04179 -0.04259 
3.000 433.0 65.305 0.444 20.399 0.00540 -0.01451 
3.025 433.0 66.722 0.750 231.679 -0.02053 0.01623 
3.050 433.0 67.902 1.780 217.907 -0.03815 0.04900 
3.075 433.0 69.084 2.753 209.236 -0.04687 0.08374 
3.100 417.0 71.320 3.649 201.990 -0.04757 0.11779 
3.125 417.0 74.136 4.442 196.332 -0.04342 0.14819 
3.150 417.0 74.437 5.216 190.651 -0.03347 0.17796 
3.175 417.0 74.469 5.850 185.052 -0.01786 0.20201 
3.200 417.0 74.599 6.406 180.231 -0.00089 0.22174 
3.225 417.0 73.569 6.853 175.676 0.01786 0.23625 
3.250 417.0 73.126 7.253 170.955 0.03938 0.24738 
3.275 417.0 71.428 7.637 166.250 0.06262 0.25590 
3.300 417.0 68.613 7.861 161.855 0.08438 0.25749 
3.325 417.0 63.961 8.066 157.366 0.10693 0.25646 
3.350 425.0 69.160 8.210 153.000 0.12833 0.25187 
3.375 425.0 68.855 8.270 149.103 0.14619 0.24430 
3.400 425.0 68.929 8.213 145.413 0.16051 0.23279 
3.425 425.0 68.493 8.124 142.243 0.17133 0.22122 
3.450 425.0 66.517 7.974 139.158 0.17969 0.20786 
3.475 425.0 64.039 7.772 136.529 0.18436 0.19447 
3.500 425.0 60.652 7.604 134.251 0.18789 0.18304 
3.525 435.0 68.676 7.412 132.360 0.18905 0.17239 
3.550 435.0 65.504 7.203 130.842 0.18821 0.16270 
3.575 435.0 63.106 7.003 129.576 0.18655 0.15419 
3.600 435.0 60.745 6.766 128.493 0.18315 0.14565 
3.625 435.0 59.330 6.576 127.963 0.17938 0.13996 
