## SPECTRUM TYPE:
Spectroscopic

## DATE:
11/9/2011

## COMMENTS:

## NUMBER OF SPECTRUM:
5

## ELLIPSOMETRIC CONFIGURATION:
-45.00 øModulator
+45.00 øAnalyser

## UNIT:
eV


# SPECTRUM:
1

# START TIME:
14:18:41

# END TIME:
14:30:40

# THETA ANGLE:
0.00 ø

# INCIDENCE ANGLE:
55.00 ø

# ACCUMULATION NUMBER:
1

# ELLIPSOMETRIC CONFIGURATION:
-45.00 øModulator
+45.00 øAnalyser

# INTEGRATION TIME:
500 ms

# FIRST POINT:
0.6000 eV

# LAST POINT:
6.5000 eV

# INCREMENT:
0.0250 eV

# NUMBER OF POINTS:
237

# DATA:
eV Hv S0 Psi Delta Is Ic 
0.600 3898.9 53.193 28.398 331.852 -0.39473 -0.54764 
0.625 3898.9 77.808 28.602 331.313 -0.40352 -0.54165 
0.650 3600.5 79.815 28.713 331.604 -0.40075 -0.53839 
0.675 3403.6 78.927 28.951 332.458 -0.39172 -0.53138 
0.700 2406.7 77.265 28.991 334.901 -0.35965 -0.53020 
0.725 2006.6 77.231 29.125 337.458 -0.32598 -0.52623 
0.750 1905.0 78.330 29.151 340.499 -0.28403 -0.52545 
0.775 1606.6 77.113 29.375 343.805 -0.23845 -0.51879 
0.800 1104.9 70.361 29.334 347.372 -0.18673 -0.52000 
0.825 1403.4 69.176 29.462 351.122 -0.13218 -0.51617 
0.850 1403.4 67.967 29.459 354.887 -0.07633 -0.51626 
0.875 1003.3 65.209 29.564 358.777 -0.01832 -0.51312 
0.900 1200.2 72.677 29.597 2.733 0.04096 -0.51214 
0.925 1301.8 71.325 29.556 6.637 0.09919 -0.51336 
0.950 1301.8 63.493 29.542 10.534 0.15685 -0.51378 
0.975 1003.3 66.019 29.455 14.456 0.21378 -0.51638 
1.000 1301.8 64.404 29.437 18.091 0.26582 -0.51693 
1.025 1301.8 67.425 29.353 21.632 0.31501 -0.51943 
1.050 901.7 66.934 29.140 25.124 0.36116 -0.52576 
1.075 1301.8 63.920 29.057 28.163 0.40077 -0.52822 
1.100 1301.8 67.176 28.808 31.373 0.43964 -0.53559 
1.125 1301.8 64.033 28.705 34.656 0.47911 -0.53863 
1.150 1301.8 70.453 28.507 38.500 0.52217 -0.54443 
1.175 1403.4 69.925 28.251 44.948 0.58913 -0.55191 
1.200 1803.4 61.981 28.344 57.741 0.70670 -0.54921 
1.225 1606.6 78.647 29.847 73.015 0.82568 -0.50462 
1.250 1104.9 70.235 32.987 75.022 0.88234 -0.40714 
1.275 2406.7 62.626 37.389 57.749 0.81604 -0.26257 
1.300 3206.8 61.518 42.831 28.887 0.48170 -0.07564 
1.325 3905.3 54.882 45.296 357.616 -0.04160 0.01035 
1.350 2603.5 78.774 42.634 318.590 -0.65919 -0.08248 
1.375 2603.5 61.040 38.078 294.692 -0.88217 -0.23927 
1.400 2101.9 77.849 33.135 275.737 -0.91087 -0.40242 
1.425 3898.9 30.922 30.608 283.714 -0.85146 -0.48150 
1.450 4000.5 17.934 28.578 293.067 -0.77298 -0.54236 
1.475 780.0 46.453 27.183 305.233 -0.66386 -0.58262 
1.500 605.0 63.433 26.571 309.570 -0.61678 -0.59983 
1.525 709.0 70.481 26.078 316.821 -0.54036 -0.61352 
1.550 636.0 68.006 25.924 323.062 -0.47257 -0.61774 
1.575 667.0 64.871 25.908 329.347 -0.40074 -0.61820 
1.600 667.0 75.758 25.904 335.165 -0.33010 -0.61831 
1.625 593.0 72.773 26.061 340.661 -0.26139 -0.61397 
1.650 593.0 58.461 26.004 346.298 -0.18668 -0.61556 
1.675 593.0 72.930 26.087 351.563 -0.11590 -0.61327 
1.700 575.0 70.767 26.112 356.911 -0.04260 -0.61256 
1.725 563.0 68.948 26.014 2.011 0.02766 -0.61527 
1.750 553.0 71.158 25.859 7.262 0.09922 -0.61953 
1.775 543.0 70.117 25.737 12.499 0.16931 -0.62286 
1.800 525.0 69.160 25.481 17.872 0.23836 -0.62985 
1.825 525.0 74.352 25.215 23.219 0.30391 -0.63702 
1.850 515.0 68.613 24.848 28.803 0.36743 -0.64685 
1.875 515.0 70.552 24.466 34.487 0.42690 -0.65695 
1.900 515.0 74.868 24.046 40.659 0.48491 -0.66793 
1.925 515.0 75.553 23.615 47.171 0.53837 -0.67905 
1.950 515.0 74.792 23.143 54.254 0.58664 -0.69106 
1.975 515.0 72.589 22.691 62.611 0.63200 -0.70239 
2.000 515.0 66.907 22.233 72.647 0.66860 -0.71367 
2.025 526.0 67.098 21.866 83.763 0.68719 -0.72259 
2.050 542.0 67.209 21.400 79.943 0.66901 -0.73372 
2.075 542.0 64.103 20.911 58.815 0.57045 -0.74523 
2.100 555.0 68.507 20.236 33.484 0.35809 -0.76072 
2.125 555.0 66.349 19.381 3.797 0.04146 -0.77975 
2.150 555.0 72.191 18.496 331.934 -0.28309 -0.79872 
2.175 540.0 71.559 17.947 302.793 -0.49286 -0.81010 
2.200 521.0 70.569 17.922 280.549 -0.57567 -0.81062 
2.225 504.0 70.930 18.120 281.855 -0.57856 -0.80655 
2.250 486.0 69.179 18.501 296.005 -0.54090 -0.79862 
2.275 474.0 70.786 18.869 306.794 -0.49012 -0.79083 
2.300 460.0 67.014 19.322 316.545 -0.42951 -0.78104 
2.325 452.0 70.395 19.684 324.841 -0.36525 -0.77310 
2.350 443.0 70.163 19.994 331.840 -0.30328 -0.76618 
2.375 435.0 68.586 20.282 338.036 -0.24323 -0.75968 
2.400 435.0 75.162 20.471 343.831 -0.18248 -0.75538 
2.425 424.0 69.875 20.670 349.303 -0.12260 -0.75081 
2.450 414.0 69.449 20.711 354.203 -0.06683 -0.74986 
2.475 414.0 75.344 20.689 358.825 -0.01356 -0.75037 
2.500 448.0 66.720 20.602 3.600 0.04136 -0.75236 
2.525 448.0 70.761 20.407 8.006 0.09103 -0.75683 
2.550 448.0 67.396 20.152 12.299 0.13778 -0.76262 
2.575 448.0 73.377 19.818 16.341 0.17948 -0.77011 
2.600 448.0 65.194 19.353 20.510 0.21909 -0.78037 
2.625 448.0 76.474 18.771 24.656 0.25419 -0.79291 
2.650 448.0 79.091 18.158 28.563 0.28316 -0.80576 
2.675 448.0 64.673 17.419 32.287 0.30515 -0.82077 
2.700 459.0 67.392 16.543 36.212 0.32251 -0.83785 
2.725 470.0 69.255 15.389 40.200 0.33029 -0.85916 
2.750 470.0 68.931 14.197 43.772 0.32898 -0.87969 
2.775 481.0 65.995 12.948 46.552 0.31707 -0.89959 
2.800 481.0 60.940 11.515 48.935 0.29497 -0.92030 
2.825 493.0 68.398 9.965 49.848 0.26054 -0.94011 
2.850 493.0 62.242 8.332 48.427 0.21453 -0.95800 
2.875 503.0 68.453 6.853 43.454 0.16297 -0.97152 
2.900 503.0 67.253 5.906 32.714 0.11064 -0.97882 
2.925 503.0 68.014 5.581 18.493 0.06140 -0.98108 
2.950 503.0 71.566 5.958 4.243 0.01528 -0.97845 
2.975 503.0 72.627 6.874 355.314 -0.01941 -0.97135 
3.000 503.0 76.607 7.994 350.714 -0.04445 -0.96132 
3.025 494.0 70.202 9.132 349.324 -0.05806 -0.94962 
3.050 494.0 73.045 10.166 349.588 -0.06280 -0.93769 
3.075 494.0 76.272 11.038 350.863 -0.05968 -0.92669 
3.100 468.0 70.354 11.886 352.645 -0.05160 -0.91516 
3.125 468.0 74.368 12.630 354.878 -0.03809 -0.90438 
3.150 468.0 75.712 13.226 357.173 -0.02197 -0.89531 
3.175 468.0 76.387 13.781 359.689 -0.00251 -0.88652 
3.200 468.0 77.112 14.143 2.107 0.01742 -0.88059 
3.225 468.0 77.701 14.461 4.502 0.03796 -0.87528 
3.250 460.0 69.212 14.693 6.900 0.05895 -0.87133 
3.275 460.0 68.489 14.848 9.359 0.08056 -0.86866 
3.300 460.0 65.984 14.870 11.783 0.10130 -0.86828 
3.325 460.0 62.058 14.870 14.159 0.12135 -0.86828 
3.350 460.0 58.587 14.734 16.426 0.13910 -0.87064 
3.375 471.0 70.895 14.532 18.419 0.15349 -0.87408 
3.400 471.0 70.983 14.247 20.208 0.16480 -0.87886 
3.425 471.0 70.150 13.974 21.598 0.17252 -0.88337 
3.450 471.0 68.221 13.678 22.758 0.17776 -0.88817 
3.475 471.0 66.594 13.327 23.504 0.17891 -0.89374 
3.500 471.0 64.450 13.074 23.984 0.17914 -0.89765 
3.525 471.0 61.754 12.798 24.214 0.17720 -0.90186 
3.550 471.0 60.129 12.551 24.224 0.17407 -0.90555 
3.575 482.0 68.830 12.235 24.275 0.17029 -0.91018 
3.600 482.0 67.824 12.082 23.897 0.16582 -0.91238 
3.625 482.0 66.807 11.860 23.351 0.15944 -0.91553 
3.650 482.0 65.814 11.723 22.862 0.15459 -0.91743 
3.675 482.0 65.563 11.608 22.120 0.14843 -0.91903 
3.700 482.0 65.012 11.520 21.528 0.14361 -0.92023 
3.725 482.0 64.925 11.562 20.782 0.13935 -0.91966 
3.750 482.0 64.700 11.508 20.165 0.13478 -0.92040 
3.775 482.0 63.907 11.617 19.582 0.13221 -0.91890 
3.800 482.0 62.388 11.676 19.079 0.12957 -0.91808 
3.825 482.0 60.187 11.748 18.876 0.12898 -0.91709 
3.850 493.0 67.805 11.773 18.733 0.12829 -0.91675 
3.875 493.0 63.891 11.988 18.366 0.12804 -0.91371 
3.900 493.0 60.192 12.007 18.495 0.12910 -0.91344 
3.925 505.0 67.057 12.256 18.259 0.12999 -0.90987 
3.950 505.0 64.477 12.253 18.709 0.13305 -0.90992 
3.975 505.0 60.865 12.438 18.581 0.13403 -0.90723 
4.000 516.0 68.378 12.391 19.181 0.13771 -0.90791 
4.025 516.0 64.714 12.502 19.240 0.13929 -0.90627 
4.050 516.0 61.274 12.571 19.799 0.14391 -0.90525 
4.075 516.0 58.512 12.623 20.230 0.14748 -0.90449 
4.100 531.0 68.292 12.652 20.574 0.15020 -0.90406 
4.125 531.0 64.582 12.739 20.826 0.15294 -0.90275 
4.150 531.0 61.579 12.711 21.182 0.15511 -0.90317 
4.175 531.0 59.057 12.753 21.762 0.15964 -0.90254 
4.200 544.0 68.558 12.696 22.192 0.16197 -0.90339 
4.225 544.0 66.469 12.737 22.531 0.16481 -0.90278 
4.250 544.0 64.885 12.718 23.017 0.16794 -0.90306 
4.275 544.0 61.573 12.673 23.389 0.16994 -0.90373 
4.300 616.0 75.246 12.626 24.224 0.17503 -0.90444 
4.325 616.0 80.206 12.623 24.480 0.17673 -0.90449 
4.350 603.0 71.326 12.638 24.700 0.17841 -0.90427 
4.375 603.0 75.006 12.661 24.755 0.17909 -0.90392 
4.400 603.0 77.699 12.652 24.816 0.17939 -0.90406 
4.425 591.0 68.765 12.608 25.099 0.18071 -0.90471 
4.450 591.0 70.213 12.500 25.221 0.18008 -0.90631 
4.475 591.0 71.879 12.533 25.213 0.18048 -0.90582 
4.500 591.0 73.312 12.540 25.307 0.18119 -0.90572 
4.525 591.0 73.432 12.472 25.418 0.18101 -0.90673 
4.550 591.0 74.112 12.470 25.497 0.18151 -0.90676 
4.575 591.0 74.118 12.444 25.725 0.18267 -0.90713 
4.600 591.0 72.574 12.436 25.474 0.18090 -0.90725 
4.625 591.0 73.571 12.391 25.830 0.18263 -0.90791 
4.650 591.0 72.724 12.475 25.606 0.18230 -0.90668 
4.675 591.0 71.178 12.448 25.908 0.18393 -0.90708 
4.700 591.0 69.802 12.493 25.771 0.18364 -0.90642 
4.725 591.0 68.781 12.497 25.805 0.18393 -0.90635 
4.750 591.0 70.299 12.426 25.191 0.17888 -0.90740 
4.775 591.0 65.838 12.487 25.926 0.18459 -0.90651 
4.800 591.0 64.639 12.507 26.072 0.18584 -0.90620 
4.825 591.0 63.125 12.523 26.059 0.18597 -0.90597 
4.850 591.0 61.503 12.548 26.283 0.18781 -0.90560 
4.875 591.0 59.965 12.553 26.499 0.18932 -0.90552 
4.900 591.0 59.021 12.628 26.334 0.18928 -0.90441 
4.925 604.0 68.070 12.523 26.692 0.19016 -0.90597 
4.950 604.0 65.928 12.552 26.697 0.19060 -0.90555 
4.975 604.0 65.868 12.605 27.036 0.19360 -0.90476 
5.000 604.0 64.925 12.537 27.172 0.19353 -0.90576 
5.025 604.0 62.975 12.717 27.016 0.19508 -0.90309 
5.050 604.0 61.952 12.627 27.256 0.19538 -0.90443 
5.075 604.0 60.323 12.618 27.551 0.19720 -0.90456 
5.100 604.0 59.390 12.628 27.501 0.19703 -0.90441 
5.125 620.0 69.500 12.613 27.832 0.19898 -0.90463 
5.150 620.0 67.311 12.659 27.802 0.19947 -0.90394 
5.175 620.0 66.466 12.735 27.955 0.20159 -0.90281 
5.200 620.0 64.165 12.768 27.730 0.20059 -0.90231 
5.225 620.0 61.950 12.680 28.169 0.20218 -0.90364 
5.250 620.0 60.704 12.669 28.439 0.20380 -0.90380 
5.275 633.0 67.991 12.763 28.248 0.20396 -0.90238 
5.300 633.0 66.554 12.639 28.868 0.20616 -0.90425 
5.325 633.0 64.529 12.677 28.929 0.20714 -0.90368 
5.350 633.0 61.654 12.606 28.933 0.20608 -0.90473 
5.375 633.0 60.829 12.721 28.826 0.20714 -0.90302 
5.400 633.0 59.547 12.829 28.936 0.20950 -0.90140 
5.425 647.0 68.215 12.869 28.838 0.20945 -0.90079 
5.450 647.0 66.754 12.705 29.459 0.21102 -0.90327 
5.475 647.0 64.597 12.896 29.119 0.21173 -0.90038 
5.500 647.0 62.805 12.821 29.158 0.21084 -0.90152 
5.525 647.0 61.299 12.776 29.581 0.21293 -0.90219 
5.550 647.0 59.118 12.840 29.478 0.21325 -0.90123 
5.575 647.0 57.548 12.941 29.566 0.21540 -0.89969 
5.600 664.0 66.792 12.787 29.859 0.21492 -0.90203 
5.625 664.0 64.836 12.971 29.843 0.21770 -0.89923 
5.650 664.0 62.101 12.840 30.156 0.21770 -0.90122 
5.675 664.0 58.950 12.762 30.367 0.21782 -0.90241 
5.700 679.0 67.572 13.035 29.897 0.21906 -0.89825 
5.725 679.0 63.722 12.775 30.736 0.22043 -0.90220 
5.750 679.0 62.439 12.802 30.963 0.22234 -0.90180 
5.775 692.0 67.631 12.945 31.222 0.22633 -0.89964 
5.800 692.0 63.562 12.950 31.002 0.22498 -0.89956 
5.825 692.0 59.375 12.920 31.117 0.22524 -0.90002 
5.850 708.0 66.038 12.954 30.916 0.22449 -0.89949 
5.875 708.0 62.022 13.142 30.827 0.22692 -0.89662 
5.900 708.0 58.637 12.949 31.508 0.22827 -0.89957 
5.925 725.0 64.470 13.075 31.915 0.23300 -0.89764 
5.950 725.0 59.806 13.015 30.719 0.22417 -0.89856 
5.975 745.0 68.111 13.142 31.238 0.22965 -0.89661 
6.000 745.0 63.476 12.826 32.251 0.23101 -0.90144 
6.025 745.0 58.957 13.087 31.359 0.22954 -0.89746 
6.050 766.0 67.292 13.048 31.667 0.23094 -0.89805 
6.075 766.0 62.500 12.887 31.929 0.22996 -0.90052 
6.100 766.0 58.245 12.722 33.097 0.23461 -0.90300 
6.125 780.0 61.540 13.091 31.999 0.23381 -0.89740 
6.150 780.0 57.417 12.957 32.949 0.23770 -0.89945 
6.175 780.0 53.272 13.382 31.553 0.23565 -0.89287 
6.200 780.0 50.002 13.389 31.075 0.23255 -0.89276 
6.225 780.0 47.246 13.204 32.038 0.23594 -0.89564 
6.250 780.0 44.074 13.104 31.667 0.23185 -0.89720 
6.275 780.0 41.282 13.237 32.880 0.24201 -0.89514 
6.300 780.0 38.408 13.344 31.869 0.23713 -0.89346 
6.325 780.0 35.639 13.100 32.154 0.23497 -0.89726 
6.350 780.0 32.965 12.696 34.405 0.24230 -0.90339 
6.375 780.0 30.105 13.010 33.150 0.23989 -0.89864 
6.400 780.0 27.002 12.975 32.834 0.23727 -0.89917 
6.425 780.0 24.350 13.475 32.865 0.24594 -0.89140 
6.450 780.0 21.658 12.650 33.317 0.23474 -0.90408 
6.475 780.0 19.352 12.830 34.783 0.24703 -0.90138 
6.500 780.0 16.599 13.469 31.883 0.23928 -0.89150 

# MINIMA:
0.600 414.0 16.599 5.581 2.011 -0.91087 -0.98108 

# MAXIMA:
6.500 4000.5 80.206 45.296 359.689 0.88234 0.01035 

# PEAKS:

# END SPECTRUM


# SPECTRUM:
2

# START TIME:
14:31:31

# END TIME:
14:42:19

# THETA ANGLE:
0.00 ø

# INCIDENCE ANGLE:
60.00 ø

# ACCUMULATION NUMBER:
1

# ELLIPSOMETRIC CONFIGURATION:
-45.00 øModulator
+45.00 øAnalyser

# INTEGRATION TIME:
500 ms

# FIRST POINT:
0.6000 eV

# LAST POINT:
6.5000 eV

# INCREMENT:
0.0250 eV

# NUMBER OF POINTS:
237

# DATA:
eV Hv S0 Psi Delta Is Ic 
0.600 3898.9 44.579 25.347 324.284 -0.45171 -0.63345 
0.625 3898.9 65.422 25.415 322.348 -0.47359 -0.63163 
0.650 3898.9 70.441 25.272 321.633 -0.47924 -0.63549 
0.675 3898.9 73.461 25.226 322.383 -0.47066 -0.63672 
0.700 3098.8 78.668 25.038 324.724 -0.44289 -0.64177 
0.725 2501.9 76.704 25.055 327.621 -0.41089 -0.64132 
0.750 2400.3 77.248 24.899 331.405 -0.36555 -0.64549 
0.775 1898.7 77.543 24.946 335.609 -0.31585 -0.64422 
0.800 1200.2 71.575 24.842 340.186 -0.25846 -0.64701 
0.825 1498.6 63.002 24.875 345.143 -0.19570 -0.64613 
0.850 1498.6 62.194 24.890 350.294 -0.12873 -0.64573 
0.875 1098.6 67.626 24.876 355.571 -0.05894 -0.64610 
0.900 1295.4 70.848 25.030 0.836 0.01118 -0.64199 
0.925 1397.0 71.178 24.911 6.164 0.08204 -0.64517 
0.950 1397.0 64.312 24.933 11.545 0.15301 -0.64458 
0.975 1098.6 73.947 25.042 16.802 0.22171 -0.64168 
1.000 1397.0 67.894 25.065 21.728 0.28413 -0.64105 
1.025 1397.0 73.382 25.047 26.608 0.34357 -0.64154 
1.050 895.4 64.648 25.182 31.239 0.39939 -0.63790 
1.075 1397.0 72.883 25.155 35.481 0.44665 -0.63864 
1.100 1397.0 78.127 25.200 39.754 0.49274 -0.63741 
1.125 1397.0 77.048 25.307 44.074 0.53761 -0.63454 
1.150 1295.4 70.773 25.452 48.831 0.58423 -0.63061 
1.175 1295.4 61.882 25.702 56.251 0.64985 -0.62384 
1.200 1695.5 67.872 26.777 67.438 0.74286 -0.59406 
1.225 1397.0 79.128 28.811 75.332 0.81701 -0.53550 
1.250 895.4 63.812 31.949 69.373 0.84044 -0.43998 
1.275 1695.5 67.473 35.852 56.608 0.79272 -0.31392 
1.300 1797.1 61.412 40.428 38.282 0.61166 -0.15891 
1.325 2597.2 61.823 44.145 16.224 0.27927 -0.02983 
1.350 1600.2 73.459 45.009 346.413 -0.23493 0.00031 
1.375 2101.9 61.035 42.264 323.240 -0.59574 -0.09537 
1.400 1905.0 79.649 37.056 301.024 -0.82422 -0.27374 
1.425 3905.3 32.881 33.430 289.830 -0.86503 -0.39297 
1.450 3905.3 18.079 30.200 282.672 -0.84831 -0.49395 
1.475 780.0 51.610 26.665 287.016 -0.76698 -0.59721 
1.500 607.0 71.297 25.280 286.443 -0.74070 -0.63528 
1.525 706.0 72.829 23.838 295.525 -0.66718 -0.67333 
1.550 639.0 74.552 23.035 302.947 -0.60436 -0.69378 
1.575 667.0 66.515 22.385 311.153 -0.53028 -0.70994 
1.600 667.0 77.075 21.961 318.983 -0.45526 -0.72027 
1.625 584.0 65.254 21.729 326.324 -0.38140 -0.72588 
1.650 603.0 67.249 21.489 334.305 -0.29558 -0.73162 
1.675 589.0 70.753 21.337 341.719 -0.21261 -0.73523 
1.700 573.0 69.229 21.189 349.164 -0.12672 -0.73871 
1.725 573.0 79.886 21.059 356.646 -0.03924 -0.74177 
1.750 551.0 70.853 20.984 3.996 0.04660 -0.74352 
1.775 540.0 69.571 20.917 11.247 0.13009 -0.74507 
1.800 523.0 71.265 20.842 18.960 0.21607 -0.74683 
1.825 523.0 76.939 20.759 26.297 0.29366 -0.74876 
1.850 509.0 68.904 20.633 33.970 0.36853 -0.75166 
1.875 509.0 73.041 20.589 41.301 0.43456 -0.75267 
1.900 499.0 69.090 20.553 49.353 0.49884 -0.75349 
1.925 499.0 73.058 20.534 57.112 0.55167 -0.75393 
1.950 499.0 74.928 20.607 65.616 0.60010 -0.75225 
1.975 499.0 76.446 20.727 75.021 0.63952 -0.74949 
2.000 499.0 75.509 21.009 84.999 0.66681 -0.74294 
2.025 499.0 68.869 21.521 86.168 0.68100 -0.73086 
2.050 499.0 60.472 22.128 73.425 0.66888 -0.71622 
2.075 499.0 61.780 22.862 58.907 0.61312 -0.69811 
2.100 512.0 69.394 23.633 42.101 0.49244 -0.67860 
2.125 512.0 64.644 23.939 23.444 0.29510 -0.67071 
2.150 512.0 63.911 23.573 2.615 0.03345 -0.68012 
2.175 512.0 68.412 22.331 341.290 -0.22548 -0.71127 
2.200 512.0 78.488 20.696 321.258 -0.41380 -0.75019 
2.225 492.0 69.381 18.979 302.748 -0.51733 -0.78846 
2.250 479.0 68.980 17.471 285.418 -0.55213 -0.81973 
2.275 468.0 69.634 16.431 270.000 -0.54338 -0.83998 
2.300 459.0 71.182 15.652 281.832 -0.50854 -0.85442 
2.325 447.0 68.692 15.112 294.862 -0.45674 -0.86406 
2.350 447.0 78.734 14.738 305.418 -0.40101 -0.87055 
2.375 433.0 69.608 14.579 315.632 -0.34070 -0.87327 
2.400 433.0 77.253 14.451 325.126 -0.27635 -0.87544 
2.425 421.0 70.860 14.368 334.085 -0.21011 -0.87685 
2.450 410.0 70.244 14.406 342.360 -0.14605 -0.87620 
2.475 410.0 77.154 14.325 349.860 -0.08441 -0.87756 
2.500 452.0 65.586 14.349 357.758 -0.01879 -0.87717 
2.525 452.0 71.165 14.236 4.854 0.04034 -0.87904 
2.550 452.0 69.125 14.124 11.722 0.09616 -0.88090 
2.575 452.0 76.565 13.976 18.183 0.14627 -0.88334 
2.600 452.0 70.293 13.740 24.925 0.19447 -0.88717 
2.625 440.0 69.628 13.504 31.471 0.23708 -0.89094 
2.650 440.0 74.316 13.183 38.007 0.27346 -0.89598 
2.675 440.0 63.494 12.890 43.985 0.30205 -0.90046 
2.700 452.0 68.993 12.385 50.774 0.32457 -0.90799 
2.725 452.0 62.735 11.869 57.531 0.33962 -0.91540 
2.750 452.0 63.855 11.241 64.466 0.34504 -0.92400 
2.775 468.0 68.984 10.580 71.017 0.34134 -0.93258 
2.800 468.0 64.690 9.780 78.514 0.32810 -0.94229 
2.825 468.0 62.412 8.897 84.034 0.30396 -0.95216 
2.850 479.0 68.428 7.786 90.000 0.26975 -0.96329 
2.875 479.0 65.156 6.605 85.088 0.22769 -0.97354 
2.900 479.0 63.058 5.509 72.859 0.18263 -0.98157 
2.925 479.0 62.259 4.208 68.035 0.13572 -0.98923 
2.950 479.0 63.536 3.050 54.746 0.08678 -0.99434 
2.975 479.0 62.821 1.738 46.398 0.04391 -0.99816 
3.000 479.0 64.193 0.704 18.512 0.00780 -0.99970 
3.025 479.0 64.893 0.000 180.000 -0.01814 -1.00004 
3.050 479.0 66.171 1.720 324.763 -0.03462 -0.99820 
3.075 479.0 67.424 2.489 329.873 -0.04355 -0.99623 
3.100 462.0 70.088 3.431 337.840 -0.04506 -0.99284 
3.125 462.0 73.428 4.313 344.515 -0.04004 -0.98869 
3.150 462.0 74.132 5.045 350.293 -0.02954 -0.98453 
3.175 462.0 75.219 5.810 355.778 -0.01483 -0.97950 
3.200 462.0 75.749 6.292 0.563 0.00214 -0.97598 
3.225 462.0 76.189 6.823 4.983 0.02049 -0.97177 
3.250 462.0 77.430 7.214 9.629 0.04168 -0.96846 
3.275 462.0 76.865 7.566 14.311 0.06453 -0.96533 
3.300 462.0 74.791 7.769 18.790 0.08628 -0.96345 
3.325 462.0 70.876 8.033 23.179 0.10893 -0.96094 
3.350 462.0 67.907 8.177 27.621 0.13054 -0.95954 
3.375 462.0 69.442 8.175 31.591 0.14746 -0.95956 
3.400 462.0 70.706 8.164 35.298 0.16245 -0.95966 
3.425 462.0 70.820 8.028 38.858 0.17353 -0.96099 
3.450 462.0 70.100 7.918 41.885 0.18218 -0.96205 
3.475 462.0 68.595 7.745 44.604 0.18754 -0.96367 
3.500 462.0 66.719 7.568 46.800 0.19033 -0.96531 
3.525 462.0 65.138 7.364 48.728 0.19107 -0.96714 
3.550 462.0 62.838 7.285 49.245 0.19055 -0.96784 
3.575 462.0 61.740 6.986 51.398 0.18869 -0.97041 
3.600 462.0 60.675 6.816 52.042 0.18582 -0.97183 
