## SPECTRUM TYPE:
Spectroscopic

## DATE:
11/9/2011

## COMMENTS:

## NUMBER OF SPECTRUM:
5

## ELLIPSOMETRIC CONFIGURATION:
+45.00 øModulator
-45.00 øAnalyser

## UNIT:
eV


# SPECTRUM:
1

# START TIME:
17:11:25

# END TIME:
17:23:07

# THETA ANGLE:
0.00 ø

# INCIDENCE ANGLE:
55.00 ø

# ACCUMULATION NUMBER:
1

# ELLIPSOMETRIC CONFIGURATION:
+45.00 øModulator
-45.00 øAnalyser

# INTEGRATION TIME:
500 ms

# FIRST POINT:
0.6000 eV

# LAST POINT:
6.5000 eV

# INCREMENT:
0.0250 eV

# NUMBER OF POINTS:
237

# DATA:
eV Hv S0 Psi Delta Is Ic 
0.600 1701.8 60.230 27.492 330.496 0.40334 0.57380 
0.625 1600.2 78.104 29.022 332.098 0.39705 0.52926 
0.650 1498.6 74.543 27.883 331.166 0.39871 0.56259 
0.675 1498.6 72.194 28.592 332.452 0.38868 0.54194 
0.700 1301.8 69.183 28.521 334.653 0.35921 0.54401 
0.725 1200.2 65.735 30.010 338.432 0.31843 0.49969 
0.750 1200.2 69.179 29.449 341.058 0.27795 0.51655 
0.775 1098.6 68.133 29.176 344.032 0.23418 0.52470 
0.800 800.1 74.366 29.613 347.649 0.18378 0.51164 
0.825 997.0 65.435 29.350 351.273 0.12965 0.51951 
0.850 997.0 62.931 29.496 355.111 0.07304 0.51517 
0.875 800.1 80.291 29.640 358.942 0.01587 0.51084 
0.900 901.7 75.234 29.386 2.966 -0.04425 0.51844 
0.925 1003.3 74.712 29.600 6.841 -0.10232 0.51205 
0.950 1003.3 65.881 29.429 10.733 -0.15939 0.51716 
0.975 806.5 78.842 29.459 14.578 -0.21556 0.51627 
1.000 1003.3 63.955 29.541 18.195 -0.26788 0.51380 
1.025 1003.3 65.769 29.270 21.786 -0.31658 0.52191 
1.050 704.9 69.996 29.293 24.962 -0.36016 0.52123 
1.075 1104.9 76.936 29.052 28.283 -0.40228 0.52839 
1.100 1104.9 79.576 28.754 31.561 -0.44147 0.53718 
1.125 1104.9 73.664 28.591 34.854 -0.48028 0.54198 
1.150 1104.9 78.031 28.566 38.352 -0.52117 0.54269 
1.175 1104.9 64.266 28.309 45.038 -0.59084 0.55022 
1.200 1403.4 62.099 28.220 58.339 -0.70929 0.55280 
1.225 1301.8 73.968 29.794 73.617 -0.82739 0.50621 
1.250 1003.3 77.331 33.019 74.029 -0.87854 0.40613 
1.275 2000.3 63.773 37.387 57.429 -0.81314 0.26263 
1.300 2997.2 62.751 42.975 28.892 -0.48195 0.07063 
1.325 3994.2 57.710 45.316 357.512 0.04340 -0.01103 
1.350 2292.4 78.099 42.574 318.315 0.66265 0.08458 
1.375 2292.4 63.436 37.983 294.414 0.88341 0.24249 
1.400 1790.7 79.737 33.026 270.000 0.91544 0.40591 
1.425 3987.8 41.415 30.906 285.661 0.84867 0.47238 
1.450 3987.8 23.482 28.674 294.008 0.76913 0.53953 
1.475 745.0 74.666 26.412 302.865 0.66926 0.60426 
1.500 546.0 67.985 26.721 310.360 0.61206 0.59565 
1.525 640.0 74.209 26.431 317.681 0.53670 0.60375 
1.550 554.0 56.383 25.923 323.283 0.47013 0.61777 
1.575 599.0 65.522 26.079 329.863 0.39648 0.61350 
1.600 599.0 74.607 25.860 335.234 0.32884 0.61950 
1.625 536.0 72.665 26.066 340.758 0.26016 0.61386 
1.650 547.0 68.049 26.098 346.449 0.18514 0.61295 
1.675 534.0 69.973 26.215 351.717 0.11418 0.60972 
1.700 520.0 68.117 26.055 357.040 0.04075 0.61414 
1.725 520.0 77.380 26.025 2.272 -0.03126 0.61496 
1.750 504.0 70.268 25.880 7.448 -0.10181 0.61895 
1.775 495.0 68.257 25.786 12.604 -0.17095 0.62153 
1.800 482.0 70.367 25.530 17.990 -0.24022 0.62851 
1.825 482.0 73.864 25.176 23.435 -0.30623 0.63808 
1.850 482.0 78.399 24.891 28.931 -0.36939 0.64569 
1.875 473.0 68.952 24.427 34.731 -0.42902 0.65798 
1.900 473.0 70.825 24.083 40.789 -0.48674 0.66697 
1.925 473.0 71.813 23.555 47.448 -0.53973 0.68058 
1.950 473.0 69.818 23.174 54.483 -0.58893 0.69028 
1.975 473.0 65.969 22.720 62.607 -0.63263 0.70165 
2.000 473.0 60.234 22.205 72.805 -0.66852 0.71434 
2.025 495.0 70.194 21.750 86.920 -0.68737 0.72536 
2.050 508.0 68.118 21.431 79.253 -0.66830 0.73300 
2.075 508.0 63.025 21.007 58.651 -0.57160 0.74298 
2.100 522.0 68.722 20.260 32.997 -0.35383 0.76018 
2.125 522.0 65.784 19.348 3.025 -0.03299 0.78047 
2.150 522.0 70.038 18.525 331.178 0.29047 0.79810 
2.175 510.0 71.100 17.994 301.832 0.49925 0.80913 
2.200 494.0 70.148 17.932 279.873 0.57719 0.81041 
2.225 478.0 69.808 18.175 282.470 0.57873 0.80541 
2.250 464.0 69.775 18.578 296.180 0.54203 0.79699 
2.275 452.0 68.656 18.966 307.297 0.48903 0.78873 
2.300 444.0 70.702 19.337 316.631 0.42910 0.78072 
2.325 434.0 68.443 19.703 324.939 0.36466 0.77268 
2.350 434.0 76.765 20.036 331.981 0.30240 0.76524 
2.375 422.0 68.926 20.282 338.122 0.24232 0.75968 
2.400 422.0 74.688 20.509 344.017 0.18071 0.75451 
2.425 413.0 69.391 20.660 349.453 0.12085 0.75104 
2.450 404.0 68.706 20.713 354.418 0.06436 0.74981 
2.475 404.0 73.601 20.712 359.036 0.01113 0.74984 
2.500 384.0 70.087 20.575 3.796 -0.04356 0.75299 
2.525 384.0 73.718 20.277 8.290 -0.09375 0.75979 
2.550 384.0 69.689 20.069 12.513 -0.13966 0.76450 
2.575 384.0 76.191 19.930 16.512 -0.18216 0.76761 
2.600 384.0 67.629 19.119 20.980 -0.22161 0.78544 
2.625 375.0 67.649 18.815 24.748 -0.25560 0.79197 
2.650 375.0 69.942 18.209 28.605 -0.28423 0.80472 
2.675 384.0 68.515 17.424 32.448 -0.30658 0.82067 
2.700 392.0 69.522 16.819 35.615 -0.32258 0.83256 
2.725 392.0 61.565 15.351 40.430 -0.33111 0.85984 
2.750 392.0 61.214 14.133 44.076 -0.32942 0.88076 
2.775 408.0 67.784 12.911 46.844 -0.31775 0.90015 
2.800 408.0 62.303 11.545 48.596 -0.29415 0.91989 
2.825 417.0 69.839 10.118 48.758 -0.26008 0.93828 
2.850 417.0 63.793 8.529 46.502 -0.21279 0.95601 
2.875 417.0 60.899 6.470 46.003 -0.16110 0.97460 
2.900 417.0 59.875 6.414 29.468 -0.10922 0.97504 
2.925 426.0 69.069 5.552 18.264 -0.06036 0.98128 
2.950 426.0 70.542 5.899 4.080 -0.01455 0.97888 
2.975 426.0 69.560 6.801 355.201 0.01968 0.97195 
3.000 426.0 71.242 8.102 350.716 0.04502 0.96028 
3.025 426.0 72.390 9.200 349.522 0.05740 0.94888 
3.050 426.0 71.724 10.189 349.604 0.06284 0.93741 
3.075 426.0 72.775 11.109 350.893 0.05985 0.92576 
3.100 406.0 68.892 11.748 352.629 0.05115 0.91708 
3.125 406.0 71.459 12.502 354.825 0.03813 0.90628 
3.150 406.0 70.638 13.152 357.181 0.02179 0.89646 
3.175 406.0 69.490 13.760 359.752 0.00200 0.88685 
3.200 406.0 67.686 14.115 2.296 -0.01895 0.88106 
3.225 406.0 66.911 14.578 4.533 -0.03851 0.87330 
3.250 406.0 65.469 14.625 7.044 -0.05991 0.87250 
3.275 406.0 63.566 14.713 9.664 -0.08247 0.87100 
3.300 406.0 60.021 14.833 12.070 -0.10350 0.86892 
3.325 418.0 68.733 14.797 14.475 -0.12344 0.86955 
3.350 418.0 64.260 14.560 16.998 -0.14226 0.87361 
3.375 418.0 63.069 14.342 19.014 -0.15638 0.87729 
3.400 418.0 62.957 14.233 20.491 -0.16685 0.87910 
3.425 418.0 61.937 13.925 21.941 -0.17456 0.88417 
3.450 418.0 59.542 13.572 23.154 -0.17939 0.88986 
3.475 429.0 68.429 13.410 23.554 -0.18030 0.89243 
3.500 429.0 64.694 13.101 24.211 -0.18108 0.89724 
3.525 429.0 61.743 12.699 24.733 -0.17945 0.90335 
3.550 429.0 58.767 12.583 24.500 -0.17634 0.90508 
3.575 440.0 67.803 12.292 24.453 -0.17221 0.90935 
3.600 440.0 64.681 12.087 24.010 -0.16663 0.91230 
3.625 440.0 62.810 11.934 23.617 -0.16211 0.91448 
3.650 440.0 60.793 11.687 23.150 -0.15597 0.91794 
3.675 440.0 59.414 11.577 22.405 -0.14987 0.91945 
3.700 440.0 58.238 11.545 21.811 -0.14572 0.91988 
3.725 452.0 69.939 11.751 20.657 -0.14068 0.91704 
3.750 452.0 67.381 11.587 20.225 -0.13604 0.91932 
3.775 452.0 65.333 11.855 19.424 -0.13372 0.91559 
3.800 452.0 62.839 11.762 19.184 -0.13115 0.91690 
3.825 462.0 70.621 11.878 18.830 -0.13002 0.91527 
3.850 462.0 65.997 12.097 18.388 -0.12928 0.91216 
3.875 462.0 60.727 12.135 18.377 -0.12958 0.91162 
3.900 474.0 67.437 12.321 18.208 -0.13028 0.90893 
3.925 474.0 61.832 12.416 18.356 -0.13225 0.90755 
3.950 486.0 68.536 12.494 18.486 -0.13394 0.90639 
3.975 486.0 64.479 12.592 18.754 -0.13681 0.90494 
4.000 486.0 59.969 12.663 19.068 -0.13975 0.90389 
4.025 500.0 68.764 12.817 19.371 -0.14349 0.90158 
4.050 500.0 64.397 12.793 19.631 -0.14509 0.90193 
4.075 500.0 59.754 12.991 19.814 -0.14850 0.89893 
4.100 512.0 65.997 13.008 20.200 -0.15146 0.89867 
4.125 512.0 60.902 12.974 20.702 -0.15468 0.89919 
4.150 524.0 67.875 13.112 21.091 -0.15901 0.89708 
4.175 524.0 63.276 13.077 21.307 -0.16016 0.89761 
4.200 524.0 60.478 12.936 21.997 -0.16344 0.89977 
4.225 539.0 70.047 12.945 22.419 -0.16653 0.89963 
4.250 539.0 66.314 12.838 22.893 -0.16855 0.90126 
4.275 539.0 63.266 12.999 22.911 -0.17064 0.89881 
4.300 513.0 71.081 13.642 22.200 -0.17320 0.88874 
4.325 513.0 74.489 13.230 23.243 -0.17584 0.89524 
4.350 513.0 77.106 13.685 22.606 -0.17672 0.88806 
4.375 513.0 79.454 13.278 23.349 -0.17719 0.89449 
4.400 502.0 68.098 13.365 23.341 -0.17820 0.89314 
4.425 502.0 69.232 13.706 22.683 -0.17754 0.88772 
4.450 502.0 70.405 13.654 22.948 -0.17888 0.88855 
4.475 502.0 70.381 12.789 24.443 -0.17865 0.90200 
4.500 502.0 70.037 13.496 23.210 -0.17888 0.89106 
4.525 502.0 69.057 13.408 23.409 -0.17923 0.89245 
4.550 502.0 68.870 13.102 23.972 -0.17941 0.89722 
4.575 502.0 67.615 13.315 23.755 -0.18056 0.89392 
4.600 502.0 66.295 13.242 23.793 -0.17992 0.89506 
4.625 502.0 63.864 13.302 23.683 -0.17988 0.89412 
4.650 502.0 63.083 12.698 25.001 -0.18126 0.90337 
4.675 502.0 59.916 13.468 23.746 -0.18242 0.89151 
4.700 502.0 58.633 12.968 24.604 -0.18209 0.89929 
4.725 515.0 69.157 12.994 24.573 -0.18222 0.89888 
4.750 515.0 66.310 13.060 24.583 -0.18315 0.89787 
4.775 515.0 63.456 13.186 24.308 -0.18285 0.89593 
4.800 515.0 61.245 13.052 25.019 -0.18608 0.89800 
4.825 515.0 58.726 13.075 24.860 -0.18527 0.89765 
4.850 529.0 68.990 12.947 25.293 -0.18658 0.89961 
4.875 529.0 65.969 13.092 25.206 -0.18792 0.89738 
4.900 529.0 64.314 13.102 25.309 -0.18878 0.89722 
4.925 529.0 61.436 13.597 24.542 -0.18982 0.88946 
4.950 529.0 60.174 13.015 25.808 -0.19106 0.89856 
4.975 541.0 68.287 13.513 24.900 -0.19132 0.89080 
5.000 541.0 66.639 13.205 25.709 -0.19295 0.89564 
5.025 541.0 63.928 13.633 24.915 -0.19300 0.88889 
5.050 541.0 62.118 12.887 26.431 -0.19355 0.90052 
5.075 541.0 59.817 13.309 26.032 -0.19663 0.89402 
5.100 552.0 67.152 13.229 26.198 -0.19669 0.89527 
5.125 552.0 64.749 13.611 25.579 -0.19751 0.88924 
5.150 552.0 61.862 13.623 25.557 -0.19750 0.88906 
5.175 565.0 70.437 13.402 26.162 -0.19882 0.89255 
5.200 565.0 67.421 13.355 26.425 -0.20003 0.89329 
5.225 565.0 64.160 13.283 26.785 -0.20154 0.89442 
5.250 565.0 61.990 13.743 26.051 -0.20269 0.88713 
5.275 565.0 59.344 13.123 27.413 -0.20360 0.89691 
5.300 578.0 68.306 13.783 26.247 -0.20465 0.88649 
5.325 578.0 65.664 13.648 26.517 -0.20475 0.88864 
5.350 578.0 62.459 13.506 26.986 -0.20610 0.89091 
5.375 590.0 70.549 13.218 27.538 -0.20583 0.89543 
5.400 590.0 67.914 13.444 27.320 -0.20756 0.89190 
5.425 590.0 65.133 13.290 27.841 -0.20897 0.89430 
5.450 590.0 63.132 13.334 28.020 -0.21085 0.89362 
5.475 590.0 60.692 13.230 28.009 -0.20924 0.89525 
5.500 603.0 67.827 13.268 28.347 -0.21213 0.89465 
5.525 603.0 64.917 13.147 28.528 -0.21157 0.89653 
5.550 603.0 62.013 13.453 28.081 -0.21301 0.89176 
5.575 603.0 60.147 13.487 27.993 -0.21290 0.89121 
5.600 619.0 70.032 13.712 27.842 -0.21510 0.88762 
5.625 619.0 66.044 13.726 28.115 -0.21725 0.88740 
5.650 619.0 62.129 13.349 28.625 -0.21524 0.89339 
5.675 634.0 70.766 13.436 28.924 -0.21860 0.89202 
5.700 634.0 66.467 13.450 28.419 -0.21532 0.89180 
5.725 634.0 62.788 13.421 29.142 -0.21988 0.89226 
5.750 634.0 58.811 13.691 28.525 -0.21963 0.88796 
5.775 651.0 66.831 13.560 29.390 -0.22372 0.89005 
5.800 651.0 62.369 13.584 29.509 -0.22490 0.88968 
5.825 666.0 68.764 13.822 28.939 -0.22451 0.88585 
5.850 666.0 64.257 13.602 29.743 -0.22680 0.88938 
5.875 681.0 70.730 13.465 29.648 -0.22404 0.89156 
5.900 681.0 64.522 13.795 29.424 -0.22752 0.88629 
5.925 681.0 59.153 13.837 29.641 -0.22969 0.88561 
5.950 702.0 68.349 13.473 29.973 -0.22639 0.89143 
5.975 702.0 62.180 13.268 30.470 -0.22654 0.89466 
6.000 718.0 67.303 13.619 29.986 -0.22876 0.88911 
6.025 733.0 71.320 13.545 30.324 -0.22992 0.89030 
6.050 733.0 65.784 13.629 30.344 -0.23138 0.88895 
6.075 747.0 69.059 13.701 30.589 -0.23420 0.88780 
6.100 747.0 63.466 13.760 29.896 -0.23031 0.88684 
6.125 765.0 68.974 13.377 30.591 -0.22908 0.89295 
6.150 765.0 63.774 14.265 29.090 -0.23222 0.87856 
6.175 780.0 67.626 13.604 31.059 -0.23590 0.88935 
6.200 780.0 62.801 14.356 29.760 -0.23847 0.87704 
6.225 780.0 57.786 14.000 30.304 -0.23690 0.88294 
6.250 780.0 53.083 14.318 29.197 -0.23379 0.87768 
6.275 780.0 49.176 13.432 31.210 -0.23415 0.89209 
6.300 780.0 45.471 14.029 30.168 -0.23637 0.88247 
6.325 780.0 41.386 13.990 30.333 -0.23694 0.88311 
6.350 780.0 37.361 13.499 31.020 -0.23395 0.89102 
6.375 780.0 33.352 13.733 31.049 -0.23788 0.88729 
6.400 780.0 30.226 14.651 30.462 -0.24812 0.87205 
6.425 780.0 27.161 13.815 31.843 -0.24469 0.88595 
6.450 780.0 23.579 14.889 28.851 -0.23964 0.86796 
6.475 780.0 20.592 15.295 28.271 -0.24104 0.86083 
6.500 780.0 17.887 13.971 29.423 -0.23018 0.88343 

# MINIMA:
0.600 375.0 17.887 5.552 2.272 -0.87854 -0.01103 

# MAXIMA:
6.500 3994.2 80.291 45.316 359.752 0.91544 0.98128 

# PEAKS:

# END SPECTRUM


# SPECTRUM:
2

# START TIME:
17:23:51

# END TIME:
17:34:22

# THETA ANGLE:
0.00 ø

# INCIDENCE ANGLE:
60.00 ø

# ACCUMULATION NUMBER:
1

# ELLIPSOMETRIC CONFIGURATION:
+45.00 øModulator
-45.00 øAnalyser

# INTEGRATION TIME:
500 ms

# FIRST POINT:
0.6000 eV

# LAST POINT:
6.5000 eV

# INCREMENT:
0.0250 eV

# NUMBER OF POINTS:
237

# DATA:
eV Hv S0 Psi Delta Is Ic 
0.600 1701.8 62.549 25.345 324.250 0.45205 0.63352 
0.625 1505.0 72.595 24.845 322.203 0.46735 0.64692 
0.650 1403.4 69.512 25.089 321.474 0.47839 0.64040 
0.675 1403.4 67.748 24.142 320.205 0.47777 0.66543 
0.700 1301.8 76.759 24.667 324.600 0.43939 0.65165 
0.725 1200.2 73.501 24.439 326.845 0.41199 0.65765 
0.750 1200.2 76.615 25.073 331.944 0.36106 0.64084 
0.775 1098.6 75.684 25.054 336.109 0.31074 0.64133 
0.800 704.9 62.492 24.692 340.266 0.25631 0.65099 
0.825 1003.3 72.933 25.420 345.729 0.19114 0.63148 
0.850 1003.3 69.687 25.001 350.544 0.12586 0.64276 
0.875 704.9 64.257 24.931 355.908 0.05455 0.64462 
0.900 806.5 62.484 25.053 1.103 -0.01477 0.64136 
0.925 908.1 64.435 25.127 6.408 -0.08581 0.63938 
0.950 1009.7 73.423 25.373 11.517 -0.15460 0.63277 
0.975 711.2 61.478 25.225 17.003 -0.22548 0.63675 
1.000 1009.7 72.292 24.750 22.347 -0.28912 0.64944 
1.025 1009.7 74.945 25.087 26.876 -0.34718 0.64047 
1.050 711.2 79.925 25.247 31.274 -0.40054 0.63616 
1.075 1009.7 68.197 25.141 35.686 -0.44870 0.63901 
1.100 1009.7 71.087 25.581 39.214 -0.49245 0.62712 
1.125 1009.7 66.133 25.225 44.397 -0.53946 0.63676 
1.150 1009.7 71.995 25.501 48.885 -0.58551 0.62930 
1.175 1009.7 62.380 25.539 57.100 -0.65323 0.62825 
1.200 1308.1 66.911 26.668 68.124 -0.74440 0.59711 
1.225 1111.3 71.741 28.784 75.557 -0.81736 0.53629 
1.250 812.8 71.036 31.934 68.942 -0.83782 0.44045 
1.275 1511.3 69.383 35.776 56.499 -0.79102 0.31645 
1.300 1708.2 66.615 40.547 38.177 -0.61064 0.15480 
1.325 2406.7 61.703 44.156 16.084 -0.27693 0.02944 
1.350 1606.6 76.419 44.960 346.268 0.23738 0.00139 
1.375 2006.6 64.326 42.168 323.069 0.59792 0.09871 
1.400 1606.6 72.964 37.037 300.791 0.82606 0.27441 
1.425 3905.3 41.981 33.456 290.232 0.86314 0.39216 
1.450 3905.3 23.521 30.013 283.481 0.84239 0.49961 
1.475 780.0 112.278 26.836 286.742 0.77148 0.59242 
1.500 540.0 66.563 25.324 287.585 0.73713 0.63408 
1.525 620.0 63.306 23.731 294.999 0.66780 0.67608 
1.550 569.0 73.678 22.914 302.575 0.60442 0.69682 
1.575 594.0 65.713 22.402 311.069 0.53127 0.70953 
1.600 594.0 75.272 21.822 318.774 0.45484 0.72365 
1.625 530.0 72.892 21.664 326.449 0.37923 0.72744 
1.650 541.0 67.956 21.417 334.417 0.29358 0.73334 
1.675 527.0 69.052 21.434 341.842 0.21201 0.73292 
1.700 515.0 69.615 21.334 349.373 0.12499 0.73530 
1.725 505.0 68.188 21.215 356.852 0.03705 0.73809 
1.750 505.0 78.953 21.120 4.128 -0.04839 0.74034 
1.775 489.0 69.577 20.923 11.466 -0.13261 0.74495 
1.800 474.0 70.225 20.818 19.192 -0.21841 0.74738 
1.825 474.0 74.374 20.750 26.532 -0.29599 0.74897 
1.850 465.0 69.682 20.680 34.061 -0.37009 0.75057 
1.875 465.0 71.942 20.613 41.518 -0.43685 0.75211 
1.900 465.0 77.116 20.642 49.259 -0.49990 0.75146 
1.925 465.0 78.964 20.596 57.117 -0.55307 0.75250 
1.950 457.0 70.006 20.588 65.647 -0.59980 0.75268 
1.975 457.0 69.547 20.810 74.250 -0.63925 0.74756 
2.000 457.0 66.571 21.137 82.996 -0.66765 0.73994 
2.025 457.0 59.438 21.530 85.099 -0.68025 0.73065 
2.050 477.0 68.807 22.194 72.703 -0.66789 0.71461 
2.075 477.0 68.159 22.925 58.387 -0.61104 0.69654 
2.100 477.0 61.138 23.688 41.632 -0.48883 0.67719 
2.125 490.0 68.604 23.950 23.083 -0.29090 0.67042 
2.150 490.0 66.321 23.568 2.400 -0.03069 0.68025 
2.175 490.0 70.432 22.367 340.997 0.22918 0.71037 
2.200 490.0 80.497 20.742 321.097 0.41599 0.74915 
2.225 471.0 71.052 19.122 302.898 0.51974 0.78539 
2.250 459.0 70.000 17.605 286.337 0.55329 0.81705 
2.275 447.0 68.057 16.555 275.557 0.54367 0.83763 
2.300 439.0 69.216 15.693 282.502 0.50845 0.85368 
2.325 431.0 69.460 15.073 294.404 0.45734 0.86475 
2.350 431.0 77.661 14.780 305.674 0.40076 0.86984 
2.375 420.0 70.299 14.627 315.797 0.34070 0.87247 
2.400 420.0 76.690 14.448 325.207 0.27573 0.87550 
2.425 409.0 69.053 14.422 334.322 0.20905 0.87594 
2.450 401.0 70.046 14.713 342.803 0.14526 0.87099 
2.475 401.0 75.114 14.359 350.004 0.08341 0.87699 
2.500 378.0 72.287 14.213 357.797 0.01830 0.87943 
2.525 378.0 76.681 14.151 4.953 -0.04093 0.88047 
2.550 378.0 73.465 13.998 11.947 -0.09717 0.88298 
2.575 370.0 69.051 14.047 18.238 -0.14739 0.88217 
2.600 370.0 62.475 13.628 25.233 -0.19523 0.88898 
2.625 370.0 73.976 13.730 31.096 -0.23817 0.88733 
2.650 363.0 68.634 13.205 37.871 -0.27305 0.89563 
2.675 372.0 69.220 12.898 43.721 -0.30075 0.90036 
2.700 372.0 61.422 12.749 48.410 -0.32197 0.90259 
2.725 383.0 67.825 11.960 56.646 -0.33868 0.91411 
2.750 383.0 68.526 11.320 63.552 -0.34467 0.92294 
2.775 393.0 69.422 10.589 70.270 -0.34005 0.93246 
2.800 393.0 64.952 10.047 71.837 -0.32645 0.93913 
2.825 393.0 62.009 8.785 90.000 -0.30316 0.95335 
2.850 403.0 68.700 7.898 80.618 -0.26857 0.96224 
2.875 403.0 64.715 6.812 74.204 -0.22666 0.97186 
2.900 403.0 63.084 5.472 72.226 -0.18079 0.98181 
2.925 403.0 60.930 5.189 48.121 -0.13412 0.98364 
2.950 403.0 61.639 2.877 58.197 -0.08522 0.99496 
2.975 403.0 59.898 2.382 31.217 -0.04304 0.99655 
3.000 403.0 59.477 1.269 8.322 -0.00641 0.99902 
3.025 403.0 59.581 2.182 345.173 0.01947 0.99710 
3.050 412.0 69.545 1.612 320.345 0.03588 0.99842 
3.075 412.0 69.883 2.675 331.379 0.04467 0.99564 
3.100 398.0 71.347 2.873 332.609 0.04606 0.99498 
3.125 398.0 72.980 4.361 344.350 0.04090 0.98844 
3.150 398.0 72.031 4.800 349.545 0.03026 0.98600 
3.175 398.0 71.108 5.916 355.792 0.01504 0.97875 
3.200 398.0 69.406 6.484 0.558 -0.00219 0.97450 
3.225 398.0 68.164 6.974 4.978 -0.02092 0.97051 
3.250 398.0 67.230 7.088 9.830 -0.04181 0.96955 
3.275 398.0 65.771 7.466 14.628 -0.06507 0.96623 
3.300 398.0 62.521 7.859 18.717 -0.08694 0.96260 
3.325 408.0 69.512 8.196 22.765 -0.10920 0.95935 
3.350 408.0 65.171 7.981 28.584 -0.13158 0.96144 
3.375 408.0 64.623 7.882 33.414 -0.14961 0.96239 
3.400 408.0 64.550 7.982 36.529 -0.16371 0.96143 
3.425 408.0 63.589 7.849 40.132 -0.17439 0.96270 
3.450 408.0 61.550 7.683 43.505 -0.18243 0.96425 
3.475 417.0 69.549 7.851 43.955 -0.18786 0.96268 
3.500 417.0 66.084 7.670 46.133 -0.19073 0.96437 
3.525 417.0 63.238 7.354 49.158 -0.19207 0.96723 
3.550 417.0 60.783 7.025 51.791 -0.19076 0.97008 
3.575 428.0 70.222 7.151 49.930 -0.18904 0.96901 
3.600 428.0 67.760 6.846 51.948 -0.18640 0.97158 
3.625 428.0 65.570 6.816 50.654 -0.18226 0.97183 
3.650 428.0 63.533 6.469 52.314 -0.17720 0.97461 
3.675 428.0 61.534 6.105 54.946 -0.17312 0.97738 
3.700 428.0 60.212 6.027 53.580 -0.16803 0.97795 
