#                                                                                
# Lorentzian broadening with gamma= 0.100000  [eV]
# Im(epsilon) shifted by   0.0000   [eV]
# No intraband contributions added
#
# Energy Im_eps_xx Im_eps_yy Im_eps_zz
0.013610 0.500579E-02 0.500579E-02 0.529436E-02
0.040820 0.502370E-02 0.502370E-02 0.531318E-02
0.068030 0.504170E-02 0.504170E-02 0.533210E-02
0.095240 0.505981E-02 0.505981E-02 0.535113E-02
0.122450 0.507802E-02 0.507802E-02 0.537027E-02
0.149660 0.509634E-02 0.509634E-02 0.538951E-02
0.176870 0.511476E-02 0.511476E-02 0.540887E-02
0.204090 0.513330E-02 0.513330E-02 0.542834E-02
0.231300 0.515194E-02 0.515194E-02 0.544792E-02
0.258510 0.517069E-02 0.517069E-02 0.546761E-02
0.285720 0.518955E-02 0.518955E-02 0.548742E-02
0.312930 0.520851E-02 0.520851E-02 0.550733E-02
0.340140 0.522759E-02 0.522759E-02 0.552737E-02
0.367350 0.524678E-02 0.524678E-02 0.554751E-02
0.394570 0.526610E-02 0.526610E-02 0.556779E-02
0.421780 0.528552E-02 0.528552E-02 0.558817E-02
0.448990 0.530505E-02 0.530505E-02 0.560867E-02
0.476200 0.532470E-02 0.532470E-02 0.562929E-02
0.503410 0.534447E-02 0.534447E-02 0.565003E-02
0.530620 0.536435E-02 0.536435E-02 0.567090E-02
0.557830 0.538436E-02 0.538436E-02 0.569188E-02
0.585040 0.540448E-02 0.540448E-02 0.571299E-02
0.612260 0.542474E-02 0.542474E-02 0.573424E-02
0.639470 0.544510E-02 0.544510E-02 0.575560E-02
0.666680 0.546560E-02 0.546560E-02 0.577708E-02
0.693890 0.548621E-02 0.548621E-02 0.579870E-02
0.721100 0.550695E-02 0.550695E-02 0.582044E-02
0.748310 0.552782E-02 0.552782E-02 0.584232E-02
0.775520 0.554882E-02 0.554882E-02 0.586432E-02
0.802740 0.556995E-02 0.556995E-02 0.588647E-02
0.829950 0.559120E-02 0.559120E-02 0.590874E-02
0.857160 0.561258E-02 0.561258E-02 0.593114E-02
0.884370 0.563410E-02 0.563410E-02 0.595368E-02
0.911580 0.565575E-02 0.565575E-02 0.597636E-02
0.938790 0.567753E-02 0.567753E-02 0.599918E-02
0.966000 0.569945E-02 0.569945E-02 0.602213E-02
0.993220 0.572152E-02 0.572152E-02 0.604523E-02
1.020430 0.574371E-02 0.574371E-02 0.606847E-02
1.047640 0.576605E-02 0.576605E-02 0.609185E-02
1.074850 0.578852E-02 0.578852E-02 0.611537E-02
1.102060 0.581114E-02 0.581114E-02 0.613904E-02
1.129270 0.583389E-02 0.583389E-02 0.616285E-02
1.156480 0.585680E-02 0.585680E-02 0.618681E-02
1.183700 0.587985E-02 0.587985E-02 0.621093E-02
1.210910 0.590305E-02 0.590305E-02 0.623519E-02
1.238120 0.592639E-02 0.592639E-02 0.625961E-02
1.265330 0.594988E-02 0.594988E-02 0.628417E-02
1.292540 0.597353E-02 0.597353E-02 0.630889E-02
1.319750 0.599732E-02 0.599732E-02 0.633377E-02
1.346960 0.602127E-02 0.602127E-02 0.635880E-02
1.374180 0.604538E-02 0.604538E-02 0.638400E-02
1.401390 0.606965E-02 0.606965E-02 0.640935E-02
1.428600 0.609406E-02 0.609406E-02 0.643487E-02
1.455810 0.611864E-02 0.611864E-02 0.646054E-02
1.483020 0.614338E-02 0.614338E-02 0.648638E-02
1.510230 0.616828E-02 0.616828E-02 0.651239E-02
1.537440 0.619335E-02 0.619335E-02 0.653856E-02
1.564660 0.621859E-02 0.621859E-02 0.656491E-02
1.591870 0.624399E-02 0.624399E-02 0.659142E-02
1.619080 0.626955E-02 0.626955E-02 0.661810E-02
1.646290 0.629529E-02 0.629529E-02 0.664496E-02
1.673500 0.632120E-02 0.632120E-02 0.667199E-02
1.700710 0.634728E-02 0.634728E-02 0.669920E-02
1.727920 0.637354E-02 0.637354E-02 0.672658E-02
1.755130 0.639997E-02 0.639997E-02 0.675415E-02
1.782350 0.642659E-02 0.642659E-02 0.678191E-02
1.809560 0.645339E-02 0.645339E-02 0.680984E-02
1.836770 0.648036E-02 0.648036E-02 0.683795E-02
1.863980 0.650752E-02 0.650752E-02 0.686626E-02
1.891190 0.653486E-02 0.653486E-02 0.689475E-02
1.918400 0.656239E-02 0.656239E-02 0.692343E-02
1.945610 0.659011E-02 0.659011E-02 0.695230E-02
1.972830 0.661804E-02 0.661804E-02 0.698138E-02
2.000040 0.664614E-02 0.664614E-02 0.701064E-02
2.027250 0.667444E-02 0.667444E-02 0.704010E-02
2.054460 0.670294E-02 0.670294E-02 0.706976E-02
2.081670 0.673163E-02 0.673163E-02 0.709962E-02
2.108880 0.676052E-02 0.676052E-02 0.712969E-02
2.136090 0.678962E-02 0.678962E-02 0.715996E-02
2.163310 0.681894E-02 0.681894E-02 0.719044E-02
2.190520 0.684845E-02 0.684845E-02 0.722113E-02
2.217730 0.687816E-02 0.687816E-02 0.725203E-02
2.244940 0.690809E-02 0.690809E-02 0.728314E-02
2.272150 0.693824E-02 0.693824E-02 0.731446E-02
2.299360 0.696859E-02 0.696859E-02 0.734601E-02
2.326570 0.699917E-02 0.699917E-02 0.737777E-02
2.353790 0.702998E-02 0.702998E-02 0.740977E-02
2.381000 0.706100E-02 0.706100E-02 0.744198E-02
2.408210 0.709224E-02 0.709224E-02 0.747441E-02
2.435420 0.712371E-02 0.712371E-02 0.750708E-02
2.462630 0.715540E-02 0.715540E-02 0.753997E-02
2.489840 0.718733E-02 0.718733E-02 0.757310E-02
2.517050 0.721950E-02 0.721950E-02 0.760646E-02
2.544270 0.725191E-02 0.725191E-02 0.764008E-02
2.571480 0.728455E-02 0.728455E-02 0.767392E-02
2.598690 0.731743E-02 0.731743E-02 0.770801E-02
2.625900 0.735055E-02 0.735055E-02 0.774234E-02
2.653110 0.738393E-02 0.738393E-02 0.777692E-02
2.680320 0.741755E-02 0.741755E-02 0.781174E-02
2.707530 0.745142E-02 0.745142E-02 0.784683E-02
2.734750 0.748556E-02 0.748556E-02 0.788218E-02
2.761960 0.751994E-02 0.751994E-02 0.791777E-02
2.789170 0.755459E-02 0.755459E-02 0.795363E-02
2.816380 0.758950E-02 0.758950E-02 0.798975E-02
2.843590 0.762467E-02 0.762467E-02 0.802613E-02
2.870800 0.766012E-02 0.766012E-02 0.806279E-02
2.898010 0.769583E-02 0.769583E-02 0.809972E-02
2.925220 0.773182E-02 0.773182E-02 0.813692E-02
2.952440 0.776810E-02 0.776810E-02 0.817442E-02
2.979650 0.780465E-02 0.780465E-02 0.821218E-02
3.006860 0.784149E-02 0.784149E-02 0.825022E-02
3.034070 0.787861E-02 0.787861E-02 0.828856E-02
3.061280 0.791602E-02 0.791602E-02 0.832718E-02
3.088490 0.795373E-02 0.795373E-02 0.836609E-02
3.115700 0.799173E-02 0.799173E-02 0.840531E-02
3.142920 0.803005E-02 0.803005E-02 0.844483E-02
3.170130 0.806866E-02 0.806866E-02 0.848465E-02
3.197340 0.810758E-02 0.810758E-02 0.852477E-02
3.224550 0.814681E-02 0.814681E-02 0.856520E-02
3.251760 0.818635E-02 0.818635E-02 0.860594E-02
3.278970 0.822621E-02 0.822621E-02 0.864701E-02
3.306180 0.826640E-02 0.826640E-02 0.868839E-02
3.333400 0.830693E-02 0.830693E-02 0.873011E-02
3.360610 0.834777E-02 0.834777E-02 0.877214E-02
3.387820 0.838894E-02 0.838894E-02 0.881450E-02
3.415030 0.843046E-02 0.843046E-02 0.885720E-02
3.442240 0.847231E-02 0.847231E-02 0.890023E-02
3.469450 0.851451E-02 0.851451E-02 0.894361E-02
3.496660 0.855707E-02 0.855707E-02 0.898734E-02
3.523880 0.859999E-02 0.859999E-02 0.903143E-02
3.551090 0.864326E-02 0.864326E-02 0.907586E-02
3.578300 0.868689E-02 0.868689E-02 0.912065E-02
3.605510 0.873088E-02 0.873088E-02 0.916580E-02
3.632720 0.877525E-02 0.877525E-02 0.921131E-02
3.659930 0.882000E-02 0.882000E-02 0.925720E-02
3.687140 0.886513E-02 0.886513E-02 0.930347E-02
3.714360 0.891066E-02 0.891066E-02 0.935013E-02
3.741570 0.895657E-02 0.895657E-02 0.939716E-02
3.768780 0.900287E-02 0.900287E-02 0.944458E-02
3.795990 0.904957E-02 0.904957E-02 0.949239E-02
3.823200 0.909668E-02 0.909668E-02 0.954060E-02
3.850410 0.914420E-02 0.914420E-02 0.958921E-02
3.877620 0.919214E-02 0.919214E-02 0.963823E-02
3.904840 0.924052E-02 0.924052E-02 0.968769E-02
3.932050 0.928931E-02 0.928931E-02 0.973754E-02
3.959260 0.933853E-02 0.933853E-02 0.978782E-02
3.986470 0.938819E-02 0.938819E-02 0.983852E-02
4.013680 0.943829E-02 0.943829E-02 0.988966E-02
4.040890 0.948885E-02 0.948885E-02 0.994124E-02
4.068100 0.953986E-02 0.953986E-02 0.999327E-02
4.095310 0.959134E-02 0.959134E-02 0.100457E-01
4.122530 0.964330E-02 0.964330E-02 0.100987E-01
4.149740 0.969572E-02 0.969572E-02 0.101521E-01
4.176950 0.974862E-02 0.974862E-02 0.102059E-01
4.204160 0.980201E-02 0.980201E-02 0.102603E-01
4.231370 0.985589E-02 0.985589E-02 0.103151E-01
4.258580 0.991027E-02 0.991027E-02 0.103704E-01
4.285790 0.996517E-02 0.996517E-02 0.104262E-01
4.313010 0.100206E-01 0.100206E-01 0.104825E-01
4.340220 0.100765E-01 0.100765E-01 0.105393E-01
4.367430 0.101330E-01 0.101330E-01 0.105966E-01
4.394640 0.101900E-01 0.101900E-01 0.106544E-01
4.421850 0.102475E-01 0.102475E-01 0.107128E-01
4.449060 0.103056E-01 0.103056E-01 0.107716E-01
4.476270 0.103643E-01 0.103643E-01 0.108311E-01
4.503490 0.104235E-01 0.104235E-01 0.108910E-01
4.530700 0.104833E-01 0.104833E-01 0.109516E-01
4.557910 0.105437E-01 0.105437E-01 0.110126E-01
4.585120 0.106047E-01 0.106047E-01 0.110743E-01
4.612330 0.106663E-01 0.106663E-01 0.111365E-01
4.639540 0.107285E-01 0.107285E-01 0.111993E-01
4.666750 0.107913E-01 0.107913E-01 0.112627E-01
4.693970 0.108548E-01 0.108548E-01 0.113268E-01
4.721180 0.109189E-01 0.109189E-01 0.113914E-01
4.748390 0.109836E-01 0.109836E-01 0.114566E-01
4.775600 0.110490E-01 0.110490E-01 0.115225E-01
4.802810 0.111150E-01 0.111150E-01 0.115890E-01
4.830020 0.111818E-01 0.111818E-01 0.116561E-01
4.857230 0.112492E-01 0.112492E-01 0.117239E-01
4.884450 0.113174E-01 0.113174E-01 0.117924E-01
4.911660 0.113862E-01 0.113862E-01 0.118615E-01
4.938870 0.114558E-01 0.114558E-01 0.119313E-01
4.966080 0.115261E-01 0.115261E-01 0.120018E-01
4.993290 0.115971E-01 0.115971E-01 0.120730E-01
5.020500 0.116689E-01 0.116689E-01 0.121450E-01
5.047710 0.117415E-01 0.117415E-01 0.122176E-01
5.074930 0.118149E-01 0.118149E-01 0.122910E-01
5.102140 0.118890E-01 0.118890E-01 0.123651E-01
5.129350 0.119640E-01 0.119640E-01 0.124400E-01
5.156560 0.120398E-01 0.120398E-01 0.125156E-01
5.183770 0.121164E-01 0.121164E-01 0.125921E-01
5.210980 0.121938E-01 0.121938E-01 0.126693E-01
5.238190 0.122721E-01 0.122721E-01 0.127473E-01
5.265400 0.123513E-01 0.123513E-01 0.128261E-01
5.292620 0.124315E-01 0.124315E-01 0.129058E-01
5.319830 0.125125E-01 0.125125E-01 0.129863E-01
5.347040 0.125944E-01 0.125944E-01 0.130677E-01
5.374250 0.126773E-01 0.126773E-01 0.131499E-01
5.401460 0.127611E-01 0.127611E-01 0.132330E-01
5.428670 0.128459E-01 0.128459E-01 0.133171E-01
5.455880 0.129316E-01 0.129316E-01 0.134020E-01
5.483100 0.130185E-01 0.130185E-01 0.134879E-01
5.510310 0.131063E-01 0.131063E-01 0.135746E-01
5.537520 0.131951E-01 0.131951E-01 0.136624E-01
5.564730 0.132851E-01 0.132851E-01 0.137511E-01
5.591940 0.133761E-01 0.133761E-01 0.138408E-01
5.619150 0.134682E-01 0.134682E-01 0.139315E-01
5.646360 0.135614E-01 0.135614E-01 0.140233E-01
5.673580 0.136558E-01 0.136558E-01 0.141161E-01
5.700790 0.137514E-01 0.137514E-01 0.142099E-01
5.728000 0.138481E-01 0.138481E-01 0.143048E-01
5.755210 0.139461E-01 0.139461E-01 0.144008E-01
5.782420 0.140453E-01 0.140453E-01 0.144979E-01
5.809630 0.141457E-01 0.141457E-01 0.145961E-01
5.836840 0.142474E-01 0.142474E-01 0.146955E-01
5.864060 0.143505E-01 0.143505E-01 0.147961E-01
5.891270 0.144549E-01 0.144549E-01 0.148979E-01
5.918480 0.145606E-01 0.145606E-01 0.150009E-01
5.945690 0.146677E-01 0.146677E-01 0.151051E-01
5.972900 0.147763E-01 0.147763E-01 0.152105E-01
6.000110 0.148863E-01 0.148863E-01 0.153173E-01
6.027320 0.149977E-01 0.149977E-01 0.154254E-01
6.054540 0.151108E-01 0.151108E-01 0.155348E-01
6.081750 0.152253E-01 0.152253E-01 0.156455E-01
6.108960 0.153414E-01 0.153414E-01 0.157577E-01
6.136170 0.154591E-01 0.154591E-01 0.158712E-01
6.163380 0.155784E-01 0.155784E-01 0.159862E-01
6.190590 0.156995E-01 0.156995E-01 0.161026E-01
6.217800 0.158222E-01 0.158222E-01 0.162205E-01
6.245020 0.159468E-01 0.159468E-01 0.163400E-01
6.272230 0.160731E-01 0.160731E-01 0.164610E-01
6.299440 0.162012E-01 0.162012E-01 0.165836E-01
6.326650 0.163312E-01 0.163312E-01 0.167078E-01
6.353860 0.164632E-01 0.164632E-01 0.168337E-01
6.381070 0.165971E-01 0.165971E-01 0.169612E-01
6.408280 0.167330E-01 0.167330E-01 0.170904E-01
6.435490 0.168710E-01 0.168710E-01 0.172214E-01
6.462710 0.170112E-01 0.170112E-01 0.173542E-01
6.489920 0.171535E-01 0.171535E-01 0.174888E-01
6.517130 0.172979E-01 0.172979E-01 0.176253E-01
6.544340 0.174447E-01 0.174447E-01 0.177636E-01
6.571550 0.175938E-01 0.175938E-01 0.179039E-01
6.598760 0.177453E-01 0.177453E-01 0.180462E-01
6.625970 0.178993E-01 0.178993E-01 0.181906E-01
6.653190 0.180558E-01 0.180558E-01 0.183370E-01
6.680400 0.182148E-01 0.182148E-01 0.184855E-01
6.707610 0.183765E-01 0.183765E-01 0.186362E-01
6.734820 0.185410E-01 0.185410E-01 0.187892E-01
6.762030 0.187082E-01 0.187082E-01 0.189444E-01
6.789240 0.188783E-01 0.188783E-01 0.191019E-01
6.816450 0.190514E-01 0.190514E-01 0.192618E-01
6.843670 0.192276E-01 0.192276E-01 0.194242E-01
6.870880 0.194069E-01 0.194069E-01 0.195890E-01
6.898090 0.195894E-01 0.195894E-01 0.197564E-01
6.925300 0.197752E-01 0.197752E-01 0.199264E-01
6.952510 0.199644E-01 0.199644E-01 0.200991E-01
6.979720 0.201572E-01 0.201572E-01 0.202746E-01
7.006930 0.203536E-01 0.203536E-01 0.204528E-01
7.034150 0.205538E-01 0.205538E-01 0.206341E-01
7.061360 0.207578E-01 0.207578E-01 0.208182E-01
7.088570 0.209658E-01 0.209658E-01 0.210054E-01
7.115780 0.211779E-01 0.211779E-01 0.211957E-01
7.142990 0.213943E-01 0.213943E-01 0.213892E-01
7.170200 0.216151E-01 0.216151E-01 0.215860E-01
7.197410 0.218405E-01 0.218405E-01 0.217862E-01
7.224630 0.220706E-01 0.220706E-01 0.219900E-01
7.251840 0.223056E-01 0.223056E-01 0.221973E-01
7.279050 0.225456E-01 0.225456E-01 0.224082E-01
7.306260 0.227909E-01 0.227909E-01 0.226230E-01
7.333470 0.230415E-01 0.230415E-01 0.228416E-01
7.360680 0.232979E-01 0.232979E-01 0.230643E-01
7.387890 0.235601E-01 0.235601E-01 0.232911E-01
7.415110 0.238285E-01 0.238285E-01 0.235222E-01
7.442320 0.241031E-01 0.241031E-01 0.237577E-01
7.469530 0.243844E-01 0.243844E-01 0.239976E-01
7.496740 0.246725E-01 0.246725E-01 0.242423E-01
7.523950 0.249677E-01 0.249677E-01 0.244918E-01
7.551160 0.252705E-01 0.252705E-01 0.247462E-01
7.578370 0.255810E-01 0.255810E-01 0.250058E-01
7.605580 0.258998E-01 0.258998E-01 0.252707E-01
7.632800 0.262271E-01 0.262271E-01 0.255412E-01
7.660010 0.265633E-01 0.265633E-01 0.258173E-01
7.687220 0.269089E-01 0.269089E-01 0.260993E-01
7.714430 0.272643E-01 0.272643E-01 0.263874E-01
7.741640 0.276301E-01 0.276301E-01 0.266818E-01
7.768850 0.280067E-01 0.280067E-01 0.269827E-01
7.796060 0.283948E-01 0.283948E-01 0.272905E-01
7.823280 0.287951E-01 0.287951E-01 0.276054E-01
7.850490 0.292080E-01 0.292080E-01 0.279276E-01
7.877700 0.296344E-01 0.296344E-01 0.282574E-01
7.904910 0.300752E-01 0.300752E-01 0.285951E-01
7.932120 0.305311E-01 0.305311E-01 0.289411E-01
7.959330 0.310032E-01 0.310032E-01 0.292957E-01
7.986540 0.314924E-01 0.314924E-01 0.296593E-01
8.013760 0.320002E-01 0.320002E-01 0.300324E-01
8.040970 0.325274E-01 0.325274E-01 0.304152E-01
8.068180 0.330757E-01 0.330757E-01 0.308083E-01
8.095390 0.336466E-01 0.336466E-01 0.312121E-01
8.122600 0.342419E-01 0.342419E-01 0.316272E-01
8.149810 0.348634E-01 0.348634E-01 0.320541E-01
8.177020 0.355135E-01 0.355135E-01 0.324934E-01
8.204240 0.361949E-01 0.361949E-01 0.329460E-01
8.231450 0.369098E-01 0.369098E-01 0.334121E-01
8.258660 0.376619E-01 0.376619E-01 0.338929E-01
8.285870 0.384547E-01 0.384547E-01 0.343890E-01
8.313080 0.392926E-01 0.392926E-01 0.349014E-01
8.340290 0.401807E-01 0.401807E-01 0.354311E-01
8.367500 0.411248E-01 0.411248E-01 0.359793E-01
8.394720 0.421323E-01 0.421323E-01 0.365472E-01
8.421930 0.432109E-01 0.432109E-01 0.371360E-01
8.449140 0.443712E-01 0.443712E-01 0.377473E-01
8.476350 0.456258E-01 0.456258E-01 0.383828E-01
8.503560 0.469903E-01 0.469903E-01 0.390447E-01
8.530770 0.484847E-01 0.484847E-01 0.397350E-01
8.557980 0.501347E-01 0.501347E-01 0.404566E-01
8.585200 0.519743E-01 0.519743E-01 0.412129E-01
8.612410 0.540453E-01 0.540453E-01 0.420071E-01
8.639620 0.564027E-01 0.564027E-01 0.428440E-01
8.666830 0.591115E-01 0.591115E-01 0.437289E-01
8.694040 0.622432E-01 0.622432E-01 0.446678E-01
8.721250 0.658710E-01 0.658710E-01 0.456674E-01
8.748460 0.700687E-01 0.700687E-01 0.467348E-01
8.775670 0.749176E-01 0.749176E-01 0.478776E-01
8.802890 0.805213E-01 0.805213E-01 0.491048E-01
8.830100 0.870046E-01 0.870046E-01 0.504252E-01
8.857310 0.945167E-01 0.945167E-01 0.518504E-01
8.884520 0.103196E+00 0.103196E+00 0.533934E-01
8.911730 0.113143E+00 0.113143E+00 0.550672E-01
8.938940 0.124403E+00 0.124403E+00 0.568837E-01
8.966150 0.136965E+00 0.136965E+00 0.588533E-01
8.993370 0.150772E+00 0.150772E+00 0.609914E-01
9.020580 0.165692E+00 0.165692E+00 0.633219E-01
9.047790 0.181539E+00 0.181539E+00 0.658816E-01
9.075000 0.198061E+00 0.198061E+00 0.687124E-01
9.102210 0.214962E+00 0.214962E+00 0.718597E-01
9.129420 0.231932E+00 0.231932E+00 0.753710E-01
9.156630 0.248663E+00 0.248663E+00 0.792942E-01
9.183850 0.264860E+00 0.264860E+00 0.836755E-01
9.211060 0.280198E+00 0.280198E+00 0.885489E-01
9.238270 0.294441E+00 0.294441E+00 0.939437E-01
9.265480 0.307545E+00 0.307545E+00 0.998845E-01
9.292690 0.319660E+00 0.319660E+00 0.106402E+00
9.319900 0.330999E+00 0.330999E+00 0.113547E+00
9.347110 0.341751E+00 0.341751E+00 0.121401E+00
9.374330 0.352072E+00 0.352072E+00 0.130092E+00
9.401540 0.362070E+00 0.362070E+00 0.139771E+00
9.428750 0.371831E+00 0.371831E+00 0.150605E+00
9.455960 0.381404E+00 0.381404E+00 0.162728E+00
9.483170 0.390826E+00 0.390826E+00 0.176228E+00
9.510380 0.400132E+00 0.400132E+00 0.191139E+00
9.537590 0.409366E+00 0.409366E+00 0.207450E+00
9.564810 0.418574E+00 0.418574E+00 0.225119E+00
9.592020 0.427796E+00 0.427796E+00 0.244046E+00
9.619230 0.437074E+00 0.437074E+00 0.264102E+00
9.646440 0.446434E+00 0.446434E+00 0.285083E+00
9.673650 0.455881E+00 0.455881E+00 0.306710E+00
9.700860 0.465407E+00 0.465407E+00 0.328658E+00
9.728070 0.474996E+00 0.474996E+00 0.350614E+00
9.755290 0.484642E+00 0.484642E+00 0.372352E+00
9.782500 0.494352E+00 0.494352E+00 0.393693E+00
9.809710 0.504155E+00 0.504155E+00 0.414424E+00
9.836920 0.514082E+00 0.514082E+00 0.434095E+00
9.864130 0.524145E+00 0.524145E+00 0.452177E+00
9.891340 0.534339E+00 0.534339E+00 0.468520E+00
9.918550 0.544639E+00 0.544639E+00 0.483484E+00
9.945760 0.555018E+00 0.555018E+00 0.497646E+00
9.972980 0.565467E+00 0.565467E+00 0.511552E+00
10.000190 0.575992E+00 0.575992E+00 0.525603E+00
10.027400 0.586651E+00 0.586651E+00 0.540087E+00
10.054610 0.597527E+00 0.597527E+00 0.555179E+00
10.081820 0.608736E+00 0.608736E+00 0.570974E+00
10.109030 0.620398E+00 0.620398E+00 0.587510E+00
10.136240 0.632582E+00 0.632582E+00 0.604776E+00
10.163460 0.645304E+00 0.645304E+00 0.622736E+00
10.190670 0.658550E+00 0.658550E+00 0.641302E+00
10.217880 0.672330E+00 0.672330E+00 0.660395E+00
10.245090 0.686652E+00 0.686652E+00 0.679924E+00
10.272300 0.701517E+00 0.701517E+00 0.699796E+00
10.299510 0.716902E+00 0.716902E+00 0.719917E+00
10.326720 0.732796E+00 0.732796E+00 0.740189E+00
10.353940 0.749258E+00 0.749258E+00 0.760517E+00
10.381150 0.766388E+00 0.766388E+00 0.780791E+00
10.408360 0.784320E+00 0.784320E+00 0.800938E+00
10.435570 0.803195E+00 0.803195E+00 0.820910E+00
10.462780 0.823162E+00 0.823162E+00 0.840731E+00
10.489990 0.844376E+00 0.844376E+00 0.860524E+00
10.517200 0.866996E+00 0.866996E+00 0.880503E+00
10.544420 0.891178E+00 0.891178E+00 0.900926E+00
10.571630 0.917041E+00 0.917041E+00 0.921993E+00
10.598840 0.944676E+00 0.944676E+00 0.943857E+00
10.626050 0.974038E+00 0.974038E+00 0.966519E+00
10.653260 0.100490E+01 0.100490E+01 0.989780E+00
10.680470 0.103690E+01 0.103690E+01 0.101327E+01
10.707680 0.106959E+01 0.106959E+01 0.103649E+01
10.734900 0.110256E+01 0.110256E+01 0.105895E+01
10.762110 0.113540E+01 0.113540E+01 0.108016E+01
10.789320 0.116782E+01 0.116782E+01 0.109986E+01
10.816530 0.119964E+01 0.119964E+01 0.111810E+01
10.843740 0.123087E+01 0.123087E+01 0.113511E+01
10.870950 0.126158E+01 0.126158E+01 0.115114E+01
10.898160 0.129179E+01 0.129179E+01 0.116642E+01
10.925380 0.132150E+01 0.132150E+01 0.118107E+01
10.952590 0.135062E+01 0.135062E+01 0.119507E+01
10.979800 0.137886E+01 0.137886E+01 0.120831E+01
11.007010 0.140554E+01 0.140554E+01 0.122045E+01
11.034220 0.142972E+01 0.142972E+01 0.123119E+01
11.061430 0.145065E+01 0.145065E+01 0.124053E+01
11.088640 0.146811E+01 0.146811E+01 0.124898E+01
11.115850 0.148243E+01 0.148243E+01 0.125743E+01
11.143070 0.149417E+01 0.149417E+01 0.126680E+01
