#                                                                                
# Lorentzian broadening with gamma= 0.100000  [eV]
# Im(epsilon) shifted by   0.0000   [eV]
# No intraband contributions added
#
# Energy Im_eps_xx Im_eps_yy Im_eps_zz
0.013610 0.522488E-02 0.522488E-02 0.576177E-02
0.040820 0.524339E-02 0.524339E-02 0.578198E-02
0.068030 0.526200E-02 0.526200E-02 0.580231E-02
0.095240 0.528072E-02 0.528072E-02 0.582275E-02
0.122450 0.529955E-02 0.529955E-02 0.584330E-02
0.149660 0.531849E-02 0.531849E-02 0.586397E-02
0.176870 0.533754E-02 0.533754E-02 0.588475E-02
0.204090 0.535670E-02 0.535670E-02 0.590566E-02
0.231300 0.537597E-02 0.537597E-02 0.592667E-02
0.258510 0.539536E-02 0.539536E-02 0.594781E-02
0.285720 0.541485E-02 0.541485E-02 0.596907E-02
0.312930 0.543446E-02 0.543446E-02 0.599044E-02
0.340140 0.545419E-02 0.545419E-02 0.601194E-02
0.367350 0.547403E-02 0.547403E-02 0.603356E-02
0.394570 0.549400E-02 0.549400E-02 0.605531E-02
0.421780 0.551408E-02 0.551408E-02 0.607717E-02
0.448990 0.553427E-02 0.553427E-02 0.609916E-02
0.476200 0.555459E-02 0.555459E-02 0.612128E-02
0.503410 0.557503E-02 0.557503E-02 0.614353E-02
0.530620 0.559559E-02 0.559559E-02 0.616590E-02
0.557830 0.561628E-02 0.561628E-02 0.618840E-02
0.585040 0.563709E-02 0.563709E-02 0.621104E-02
0.612260 0.565803E-02 0.565803E-02 0.623381E-02
0.639470 0.567910E-02 0.567910E-02 0.625670E-02
0.666680 0.570029E-02 0.570029E-02 0.627973E-02
0.693890 0.572161E-02 0.572161E-02 0.630290E-02
0.721100 0.574306E-02 0.574306E-02 0.632620E-02
0.748310 0.576464E-02 0.576464E-02 0.634964E-02
0.775520 0.578635E-02 0.578635E-02 0.637321E-02
0.802740 0.580821E-02 0.580821E-02 0.639693E-02
0.829950 0.583019E-02 0.583019E-02 0.642079E-02
0.857160 0.585231E-02 0.585231E-02 0.644478E-02
0.884370 0.587457E-02 0.587457E-02 0.646892E-02
0.911580 0.589696E-02 0.589696E-02 0.649320E-02
0.938790 0.591949E-02 0.591949E-02 0.651763E-02
0.966000 0.594217E-02 0.594217E-02 0.654220E-02
0.993220 0.596500E-02 0.596500E-02 0.656693E-02
1.020430 0.598796E-02 0.598796E-02 0.659180E-02
1.047640 0.601106E-02 0.601106E-02 0.661682E-02
1.074850 0.603431E-02 0.603431E-02 0.664199E-02
1.102060 0.605771E-02 0.605771E-02 0.666731E-02
1.129270 0.608126E-02 0.608126E-02 0.669279E-02
1.156480 0.610496E-02 0.610496E-02 0.671842E-02
1.183700 0.612882E-02 0.612882E-02 0.674422E-02
1.210910 0.615283E-02 0.615283E-02 0.677016E-02
1.238120 0.617698E-02 0.617698E-02 0.679627E-02
1.265330 0.620130E-02 0.620130E-02 0.682253E-02
1.292540 0.622577E-02 0.622577E-02 0.684896E-02
1.319750 0.625040E-02 0.625040E-02 0.687555E-02
1.346960 0.627519E-02 0.627519E-02 0.690230E-02
1.374180 0.630015E-02 0.630015E-02 0.692923E-02
1.401390 0.632527E-02 0.632527E-02 0.695632E-02
1.428600 0.635055E-02 0.635055E-02 0.698358E-02
1.455810 0.637600E-02 0.637600E-02 0.701100E-02
1.483020 0.640162E-02 0.640162E-02 0.703860E-02
1.510230 0.642740E-02 0.642740E-02 0.706638E-02
1.537440 0.645336E-02 0.645336E-02 0.709432E-02
1.564660 0.647950E-02 0.647950E-02 0.712246E-02
1.591870 0.650581E-02 0.650581E-02 0.715076E-02
1.619080 0.653229E-02 0.653229E-02 0.717924E-02
1.646290 0.655895E-02 0.655895E-02 0.720791E-02
1.673500 0.658579E-02 0.658579E-02 0.723675E-02
1.700710 0.661281E-02 0.661281E-02 0.726578E-02
1.727920 0.664001E-02 0.664001E-02 0.729500E-02
1.755130 0.666741E-02 0.666741E-02 0.732440E-02
1.782350 0.669499E-02 0.669499E-02 0.735401E-02
1.809560 0.672276E-02 0.672276E-02 0.738380E-02
1.836770 0.675072E-02 0.675072E-02 0.741378E-02
1.863980 0.677887E-02 0.677887E-02 0.744395E-02
1.891190 0.680722E-02 0.680722E-02 0.747432E-02
1.918400 0.683576E-02 0.683576E-02 0.750489E-02
1.945610 0.686450E-02 0.686450E-02 0.753566E-02
1.972830 0.689345E-02 0.689345E-02 0.756664E-02
2.000040 0.692260E-02 0.692260E-02 0.759782E-02
2.027250 0.695195E-02 0.695195E-02 0.762920E-02
2.054460 0.698151E-02 0.698151E-02 0.766079E-02
2.081670 0.701127E-02 0.701127E-02 0.769259E-02
2.108880 0.704125E-02 0.704125E-02 0.772460E-02
2.136090 0.707144E-02 0.707144E-02 0.775683E-02
2.163310 0.710186E-02 0.710186E-02 0.778928E-02
2.190520 0.713249E-02 0.713249E-02 0.782194E-02
2.217730 0.716333E-02 0.716333E-02 0.785482E-02
2.244940 0.719440E-02 0.719440E-02 0.788792E-02
2.272150 0.722570E-02 0.722570E-02 0.792124E-02
2.299360 0.725722E-02 0.725722E-02 0.795479E-02
2.326570 0.728897E-02 0.728897E-02 0.798857E-02
2.353790 0.732097E-02 0.732097E-02 0.802259E-02
2.381000 0.735319E-02 0.735319E-02 0.805684E-02
2.408210 0.738565E-02 0.738565E-02 0.809132E-02
2.435420 0.741834E-02 0.741834E-02 0.812603E-02
2.462630 0.745128E-02 0.745128E-02 0.816099E-02
2.489840 0.748447E-02 0.748447E-02 0.819618E-02
2.517050 0.751790E-02 0.751790E-02 0.823163E-02
2.544270 0.755160E-02 0.755160E-02 0.826733E-02
2.571480 0.758554E-02 0.758554E-02 0.830327E-02
2.598690 0.761974E-02 0.761974E-02 0.833946E-02
2.625900 0.765419E-02 0.765419E-02 0.837590E-02
2.653110 0.768891E-02 0.768891E-02 0.841260E-02
2.680320 0.772389E-02 0.772389E-02 0.844957E-02
2.707530 0.775914E-02 0.775914E-02 0.848679E-02
2.734750 0.779468E-02 0.779468E-02 0.852429E-02
2.761960 0.783048E-02 0.783048E-02 0.856205E-02
2.789170 0.786655E-02 0.786655E-02 0.860007E-02
2.816380 0.790291E-02 0.790291E-02 0.863837E-02
2.843590 0.793955E-02 0.793955E-02 0.867695E-02
2.870800 0.797648E-02 0.797648E-02 0.871580E-02
2.898010 0.801369E-02 0.801369E-02 0.875493E-02
2.925220 0.805121E-02 0.805121E-02 0.879435E-02
2.952440 0.808903E-02 0.808903E-02 0.883407E-02
2.979650 0.812714E-02 0.812714E-02 0.887407E-02
3.006860 0.816556E-02 0.816556E-02 0.891435E-02
3.034070 0.820429E-02 0.820429E-02 0.895494E-02
3.061280 0.824333E-02 0.824333E-02 0.899582E-02
3.088490 0.828268E-02 0.828268E-02 0.903701E-02
3.115700 0.832235E-02 0.832235E-02 0.907851E-02
3.142920 0.836237E-02 0.836237E-02 0.912032E-02
3.170130 0.840269E-02 0.840269E-02 0.916244E-02
3.197340 0.844335E-02 0.844335E-02 0.920487E-02
3.224550 0.848435E-02 0.848435E-02 0.924762E-02
3.251760 0.852568E-02 0.852568E-02 0.929069E-02
3.278970 0.856736E-02 0.856736E-02 0.933409E-02
3.306180 0.860938E-02 0.860938E-02 0.937781E-02
3.333400 0.865178E-02 0.865178E-02 0.942189E-02
3.360610 0.869452E-02 0.869452E-02 0.946629E-02
3.387820 0.873762E-02 0.873762E-02 0.951102E-02
3.415030 0.878109E-02 0.878109E-02 0.955610E-02
3.442240 0.882493E-02 0.882493E-02 0.960153E-02
3.469450 0.886914E-02 0.886914E-02 0.964731E-02
3.496660 0.891374E-02 0.891374E-02 0.969345E-02
3.523880 0.895874E-02 0.895874E-02 0.973996E-02
3.551090 0.900411E-02 0.900411E-02 0.978683E-02
3.578300 0.904988E-02 0.904988E-02 0.983405E-02
3.605510 0.909606E-02 0.909606E-02 0.988165E-02
3.632720 0.914264E-02 0.914264E-02 0.992963E-02
3.659930 0.918963E-02 0.918963E-02 0.997799E-02
3.687140 0.923704E-02 0.923704E-02 0.100267E-01
3.714360 0.928489E-02 0.928489E-02 0.100759E-01
3.741570 0.933316E-02 0.933316E-02 0.101254E-01
3.768780 0.938186E-02 0.938186E-02 0.101753E-01
3.795990 0.943100E-02 0.943100E-02 0.102256E-01
3.823200 0.948059E-02 0.948059E-02 0.102764E-01
3.850410 0.953063E-02 0.953063E-02 0.103275E-01
3.877620 0.958114E-02 0.958114E-02 0.103791E-01
3.904840 0.963213E-02 0.963213E-02 0.104311E-01
3.932050 0.968358E-02 0.968358E-02 0.104835E-01
3.959260 0.973550E-02 0.973550E-02 0.105364E-01
3.986470 0.978792E-02 0.978792E-02 0.105896E-01
4.013680 0.984082E-02 0.984082E-02 0.106434E-01
4.040890 0.989423E-02 0.989423E-02 0.106975E-01
4.068100 0.994815E-02 0.994815E-02 0.107522E-01
4.095310 0.100026E-01 0.100026E-01 0.108072E-01
4.122530 0.100576E-01 0.100576E-01 0.108628E-01
4.149740 0.101131E-01 0.101131E-01 0.109188E-01
4.176950 0.101691E-01 0.101691E-01 0.109753E-01
4.204160 0.102257E-01 0.102257E-01 0.110323E-01
4.231370 0.102828E-01 0.102828E-01 0.110898E-01
4.258580 0.103405E-01 0.103405E-01 0.111477E-01
4.285790 0.103988E-01 0.103988E-01 0.112062E-01
4.313010 0.104577E-01 0.104577E-01 0.112652E-01
4.340220 0.105171E-01 0.105171E-01 0.113246E-01
4.367430 0.105772E-01 0.105772E-01 0.113846E-01
4.394640 0.106378E-01 0.106378E-01 0.114451E-01
4.421850 0.106991E-01 0.106991E-01 0.115062E-01
4.449060 0.107610E-01 0.107610E-01 0.115678E-01
4.476270 0.108235E-01 0.108235E-01 0.116299E-01
4.503490 0.108868E-01 0.108868E-01 0.116926E-01
4.530700 0.109506E-01 0.109506E-01 0.117559E-01
4.557910 0.110152E-01 0.110152E-01 0.118197E-01
4.585120 0.110804E-01 0.110804E-01 0.118841E-01
4.612330 0.111463E-01 0.111463E-01 0.119491E-01
4.639540 0.112129E-01 0.112129E-01 0.120147E-01
4.666750 0.112803E-01 0.112803E-01 0.120808E-01
4.693970 0.113484E-01 0.113484E-01 0.121476E-01
4.721180 0.114172E-01 0.114172E-01 0.122150E-01
4.748390 0.114867E-01 0.114867E-01 0.122830E-01
4.775600 0.115571E-01 0.115571E-01 0.123517E-01
4.802810 0.116282E-01 0.116282E-01 0.124210E-01
4.830020 0.117001E-01 0.117001E-01 0.124909E-01
4.857230 0.117728E-01 0.117728E-01 0.125615E-01
4.884450 0.118464E-01 0.118464E-01 0.126328E-01
4.911660 0.119208E-01 0.119208E-01 0.127047E-01
4.938870 0.119961E-01 0.119961E-01 0.127773E-01
4.966080 0.120722E-01 0.120722E-01 0.128506E-01
4.993290 0.121492E-01 0.121492E-01 0.129247E-01
5.020500 0.122271E-01 0.122271E-01 0.129994E-01
5.047710 0.123060E-01 0.123060E-01 0.130749E-01
5.074930 0.123858E-01 0.123858E-01 0.131511E-01
5.102140 0.124665E-01 0.124665E-01 0.132280E-01
5.129350 0.125482E-01 0.125482E-01 0.133057E-01
5.156560 0.126310E-01 0.126310E-01 0.133842E-01
5.183770 0.127147E-01 0.127147E-01 0.134634E-01
5.210980 0.127995E-01 0.127995E-01 0.135435E-01
5.238190 0.128853E-01 0.128853E-01 0.136243E-01
5.265400 0.129722E-01 0.129722E-01 0.137060E-01
5.292620 0.130602E-01 0.130602E-01 0.137885E-01
5.319830 0.131493E-01 0.131493E-01 0.138718E-01
5.347040 0.132396E-01 0.132396E-01 0.139560E-01
5.374250 0.133311E-01 0.133311E-01 0.140411E-01
5.401460 0.134237E-01 0.134237E-01 0.141270E-01
5.428670 0.135176E-01 0.135176E-01 0.142138E-01
5.455880 0.136127E-01 0.136127E-01 0.143015E-01
5.483100 0.137091E-01 0.137091E-01 0.143902E-01
5.510310 0.138068E-01 0.138068E-01 0.144798E-01
5.537520 0.139058E-01 0.139058E-01 0.145703E-01
5.564730 0.140062E-01 0.140062E-01 0.146618E-01
5.591940 0.141080E-01 0.141080E-01 0.147543E-01
5.619150 0.142112E-01 0.142112E-01 0.148478E-01
5.646360 0.143159E-01 0.143159E-01 0.149423E-01
5.673580 0.144221E-01 0.144221E-01 0.150378E-01
5.700790 0.145299E-01 0.145299E-01 0.151344E-01
5.728000 0.146391E-01 0.146391E-01 0.152320E-01
5.755210 0.147500E-01 0.147500E-01 0.153307E-01
5.782420 0.148626E-01 0.148626E-01 0.154305E-01
5.809630 0.149768E-01 0.149768E-01 0.155315E-01
5.836840 0.150928E-01 0.150928E-01 0.156335E-01
5.864060 0.152106E-01 0.152106E-01 0.157368E-01
5.891270 0.153301E-01 0.153301E-01 0.158412E-01
5.918480 0.154516E-01 0.154516E-01 0.159468E-01
5.945690 0.155749E-01 0.155749E-01 0.160536E-01
5.972900 0.157003E-01 0.157003E-01 0.161617E-01
6.000110 0.158277E-01 0.158277E-01 0.162710E-01
6.027320 0.159571E-01 0.159571E-01 0.163816E-01
6.054540 0.160888E-01 0.160888E-01 0.164936E-01
6.081750 0.162226E-01 0.162226E-01 0.166068E-01
6.108960 0.163587E-01 0.163587E-01 0.167214E-01
6.136170 0.164971E-01 0.164971E-01 0.168374E-01
6.163380 0.166380E-01 0.166380E-01 0.169548E-01
6.190590 0.167813E-01 0.167813E-01 0.170736E-01
6.217800 0.169272E-01 0.169272E-01 0.171939E-01
6.245020 0.170758E-01 0.170758E-01 0.173158E-01
6.272230 0.172270E-01 0.172270E-01 0.174391E-01
6.299440 0.173811E-01 0.173811E-01 0.175639E-01
6.326650 0.175381E-01 0.175381E-01 0.176903E-01
6.353860 0.176981E-01 0.176981E-01 0.178184E-01
6.381070 0.178611E-01 0.178611E-01 0.179481E-01
6.408280 0.180275E-01 0.180275E-01 0.180794E-01
6.435490 0.181971E-01 0.181971E-01 0.182125E-01
6.462710 0.183703E-01 0.183703E-01 0.183474E-01
6.489920 0.185469E-01 0.185469E-01 0.184840E-01
6.517130 0.187273E-01 0.187273E-01 0.186224E-01
6.544340 0.189116E-01 0.189116E-01 0.187626E-01
6.571550 0.190998E-01 0.190998E-01 0.189048E-01
6.598760 0.192922E-01 0.192922E-01 0.190489E-01
6.625970 0.194890E-01 0.194890E-01 0.191950E-01
6.653190 0.196903E-01 0.196903E-01 0.193432E-01
6.680400 0.198963E-01 0.198963E-01 0.194934E-01
6.707610 0.201072E-01 0.201072E-01 0.196457E-01
6.734820 0.203233E-01 0.203233E-01 0.198001E-01
6.762030 0.205447E-01 0.205447E-01 0.199568E-01
6.789240 0.207717E-01 0.207717E-01 0.201157E-01
6.816450 0.210047E-01 0.210047E-01 0.202770E-01
6.843670 0.212440E-01 0.212440E-01 0.204407E-01
6.870880 0.214897E-01 0.214897E-01 0.206068E-01
6.898090 0.217422E-01 0.217422E-01 0.207754E-01
6.925300 0.220021E-01 0.220021E-01 0.209465E-01
6.952510 0.222696E-01 0.222696E-01 0.211203E-01
6.979720 0.225452E-01 0.225452E-01 0.212967E-01
7.006930 0.228295E-01 0.228295E-01 0.214760E-01
7.034150 0.231232E-01 0.231232E-01 0.216581E-01
7.061360 0.234265E-01 0.234265E-01 0.218431E-01
7.088570 0.237404E-01 0.237404E-01 0.220311E-01
7.115780 0.240658E-01 0.240658E-01 0.222221E-01
7.142990 0.244034E-01 0.244034E-01 0.224164E-01
7.170200 0.247544E-01 0.247544E-01 0.226139E-01
7.197410 0.251202E-01 0.251202E-01 0.228148E-01
7.224630 0.255024E-01 0.255024E-01 0.230192E-01
7.251840 0.259026E-01 0.259026E-01 0.232272E-01
7.279050 0.263234E-01 0.263234E-01 0.234390E-01
7.306260 0.267677E-01 0.267677E-01 0.236546E-01
7.333470 0.272388E-01 0.272388E-01 0.238743E-01
7.360680 0.277410E-01 0.277410E-01 0.240982E-01
7.387890 0.282788E-01 0.282788E-01 0.243264E-01
7.415110 0.288571E-01 0.288571E-01 0.245594E-01
7.442320 0.294806E-01 0.294806E-01 0.247971E-01
7.469530 0.301545E-01 0.301545E-01 0.250399E-01
7.496740 0.308838E-01 0.308838E-01 0.252879E-01
7.523950 0.316735E-01 0.316735E-01 0.255414E-01
7.551160 0.325282E-01 0.325282E-01 0.258008E-01
7.578370 0.334522E-01 0.334522E-01 0.260663E-01
7.605580 0.344490E-01 0.344490E-01 0.263383E-01
7.632800 0.355216E-01 0.355216E-01 0.266173E-01
7.660010 0.366703E-01 0.366703E-01 0.269034E-01
7.687220 0.378943E-01 0.378943E-01 0.271971E-01
7.714430 0.391914E-01 0.391914E-01 0.274987E-01
7.741640 0.405587E-01 0.405587E-01 0.278082E-01
7.768850 0.419943E-01 0.419943E-01 0.281258E-01
7.796060 0.434972E-01 0.434972E-01 0.284514E-01
7.823280 0.450692E-01 0.450692E-01 0.287854E-01
7.850490 0.467128E-01 0.467128E-01 0.291274E-01
7.877700 0.484358E-01 0.484358E-01 0.294778E-01
7.904910 0.502500E-01 0.502500E-01 0.298369E-01
7.932120 0.521737E-01 0.521737E-01 0.302054E-01
7.959330 0.542336E-01 0.542336E-01 0.305839E-01
7.986540 0.564675E-01 0.564675E-01 0.309735E-01
8.013760 0.589282E-01 0.589282E-01 0.313756E-01
8.040970 0.616821E-01 0.616821E-01 0.317912E-01
8.068180 0.648195E-01 0.648195E-01 0.322219E-01
8.095390 0.684565E-01 0.684565E-01 0.326690E-01
8.122600 0.727380E-01 0.727380E-01 0.331342E-01
8.149810 0.778289E-01 0.778289E-01 0.336193E-01
8.177020 0.838890E-01 0.838890E-01 0.341264E-01
8.204240 0.910473E-01 0.910473E-01 0.346579E-01
8.231450 0.993740E-01 0.993740E-01 0.352161E-01
8.258660 0.108895E+00 0.108895E+00 0.358039E-01
8.285870 0.119588E+00 0.119588E+00 0.364243E-01
8.313080 0.131389E+00 0.131389E+00 0.370803E-01
8.340290 0.144194E+00 0.144194E+00 0.377752E-01
8.367500 0.157859E+00 0.157859E+00 0.385125E-01
8.394720 0.172205E+00 0.172205E+00 0.392961E-01
8.421930 0.187003E+00 0.187003E+00 0.401295E-01
8.449140 0.202021E+00 0.202021E+00 0.410172E-01
8.476350 0.217021E+00 0.217021E+00 0.419644E-01
8.503560 0.231783E+00 0.231783E+00 0.429765E-01
8.530770 0.246121E+00 0.246121E+00 0.440597E-01
8.557980 0.259893E+00 0.259893E+00 0.452201E-01
8.585200 0.273008E+00 0.273008E+00 0.464647E-01
8.612410 0.285399E+00 0.285399E+00 0.477981E-01
8.639620 0.297045E+00 0.297045E+00 0.492260E-01
8.666830 0.307947E+00 0.307947E+00 0.507520E-01
8.694040 0.318123E+00 0.318123E+00 0.523781E-01
8.721250 0.327619E+00 0.327619E+00 0.541041E-01
8.748460 0.336505E+00 0.336505E+00 0.559276E-01
8.775670 0.344871E+00 0.344871E+00 0.578445E-01
8.802890 0.352813E+00 0.352813E+00 0.598501E-01
8.830100 0.360402E+00 0.360402E+00 0.619362E-01
8.857310 0.367698E+00 0.367698E+00 0.640962E-01
8.884520 0.374743E+00 0.374743E+00 0.663221E-01
8.911730 0.381569E+00 0.381569E+00 0.686066E-01
8.938940 0.388203E+00 0.388203E+00 0.709441E-01
8.966150 0.394671E+00 0.394671E+00 0.733326E-01
8.993370 0.401003E+00 0.401003E+00 0.757749E-01
9.020580 0.407215E+00 0.407215E+00 0.782741E-01
9.047790 0.413325E+00 0.413325E+00 0.808379E-01
9.075000 0.419345E+00 0.419345E+00 0.834752E-01
9.102210 0.425286E+00 0.425286E+00 0.861968E-01
9.129420 0.431154E+00 0.431154E+00 0.890156E-01
9.156630 0.436954E+00 0.436954E+00 0.919471E-01
9.183850 0.442685E+00 0.442685E+00 0.950093E-01
9.211060 0.448337E+00 0.448337E+00 0.982175E-01
9.238270 0.453902E+00 0.453902E+00 0.101590E+00
9.265480 0.459369E+00 0.459369E+00 0.105142E+00
9.292690 0.464722E+00 0.464722E+00 0.108889E+00
9.319900 0.469947E+00 0.469947E+00 0.112841E+00
9.347110 0.475032E+00 0.475032E+00 0.117012E+00
9.374330 0.479976E+00 0.479976E+00 0.121418E+00
9.401540 0.484787E+00 0.484787E+00 0.126076E+00
9.428750 0.489484E+00 0.489484E+00 0.131014E+00
9.455960 0.494089E+00 0.494089E+00 0.136272E+00
9.483170 0.498618E+00 0.498618E+00 0.141900E+00
9.510380 0.503087E+00 0.503087E+00 0.147969E+00
9.537590 0.507503E+00 0.507503E+00 0.154577E+00
9.564810 0.511874E+00 0.511874E+00 0.161861E+00
9.592020 0.516198E+00 0.516198E+00 0.169996E+00
9.619230 0.520474E+00 0.520474E+00 0.179216E+00
9.646440 0.524700E+00 0.524700E+00 0.189786E+00
9.673650 0.528879E+00 0.528879E+00 0.201953E+00
9.700860 0.533022E+00 0.533022E+00 0.215900E+00
9.728070 0.537143E+00 0.537143E+00 0.231707E+00
9.755290 0.541261E+00 0.541261E+00 0.249357E+00
9.782500 0.545388E+00 0.545388E+00 0.268719E+00
9.809710 0.549539E+00 0.549539E+00 0.289594E+00
9.836920 0.553720E+00 0.553720E+00 0.311690E+00
9.864130 0.557939E+00 0.557939E+00 0.334645E+00
9.891340 0.562197E+00 0.562197E+00 0.358048E+00
9.918550 0.566497E+00 0.566497E+00 0.381500E+00
9.945760 0.570845E+00 0.570845E+00 0.404669E+00
9.972980 0.575256E+00 0.575256E+00 0.427324E+00
10.000190 0.579739E+00 0.579739E+00 0.449301E+00
10.027400 0.584313E+00 0.584313E+00 0.470533E+00
10.054610 0.588993E+00 0.588993E+00 0.491004E+00
10.081820 0.593792E+00 0.593792E+00 0.510734E+00
10.109030 0.598725E+00 0.598725E+00 0.529763E+00
10.136240 0.603800E+00 0.603800E+00 0.548118E+00
10.163460 0.609027E+00 0.609027E+00 0.565806E+00
10.190670 0.614392E+00 0.614392E+00 0.582787E+00
10.217880 0.619877E+00 0.619877E+00 0.599027E+00
10.245090 0.625451E+00 0.625451E+00 0.614506E+00
10.272300 0.631078E+00 0.631078E+00 0.629236E+00
10.299510 0.636719E+00 0.636719E+00 0.643242E+00
10.326720 0.642329E+00 0.642329E+00 0.656548E+00
10.353940 0.647889E+00 0.647889E+00 0.669198E+00
10.381150 0.653412E+00 0.653412E+00 0.681274E+00
10.408360 0.658950E+00 0.658950E+00 0.692931E+00
10.435570 0.664572E+00 0.664572E+00 0.704346E+00
10.462780 0.670360E+00 0.670360E+00 0.715686E+00
10.489990 0.676406E+00 0.676406E+00 0.727081E+00
10.517200 0.682823E+00 0.682823E+00 0.738622E+00
10.544420 0.689756E+00 0.689756E+00 0.750372E+00
10.571630 0.697373E+00 0.697373E+00 0.762353E+00
10.598840 0.705878E+00 0.705878E+00 0.774577E+00
10.626050 0.715496E+00 0.715496E+00 0.787016E+00
10.653260 0.726453E+00 0.726453E+00 0.799623E+00
10.680470 0.738911E+00 0.738911E+00 0.812334E+00
10.707680 0.752895E+00 0.752895E+00 0.825084E+00
10.734900 0.768301E+00 0.768301E+00 0.837816E+00
10.762110 0.785022E+00 0.785022E+00 0.850486E+00
10.789320 0.803142E+00 0.803142E+00 0.863098E+00
10.816530 0.822908E+00 0.822908E+00 0.875686E+00
10.843740 0.844601E+00 0.844601E+00 0.888312E+00
10.870950 0.868396E+00 0.868396E+00 0.901049E+00
10.898160 0.894343E+00 0.894343E+00 0.913971E+00
10.925380 0.922401E+00 0.922401E+00 0.927158E+00
10.952590 0.952385E+00 0.952385E+00 0.940667E+00
10.979800 0.984011E+00 0.984011E+00 0.954563E+00
11.007010 0.101696E+01 0.101696E+01 0.968899E+00
11.034220 0.105097E+01 0.105097E+01 0.983707E+00
11.061430 0.108583E+01 0.108583E+01 0.999014E+00
11.088640 0.112130E+01 0.112130E+01 0.101485E+01
11.115850 0.115713E+01 0.115713E+01 0.103127E+01
11.143070 0.119303E+01 0.119303E+01 0.104834E+01
