## SPECTRUM TYPE:
Spectroscopic

## DATE:
1/30/2012

## COMMENTS:

## NUMBER OF SPECTRUM:
5

## ELLIPSOMETRIC CONFIGURATION:
0.00 ø :Modulator
-45.00 øAnalyser

## UNIT:
eV


# SPECTRUM:
1

# START TIME:
10:37:04

# END TIME:
10:48:25

# THETA ANGLE:
0.00 ø

# INCIDENCE ANGLE:
55.00 ø

# ACCUMULATION NUMBER:
1

# ELLIPSOMETRIC CONFIGURATION:
0.00 ø :Modulator
-45.00 øAnalyser

# INTEGRATION TIME:
500 ms

# FIRST POINT:
0.6000 eV

# LAST POINT:
6.5000 eV

# INCREMENT:
0.0250 eV

# NUMBER OF POINTS:
237

# DATA:
eV Hv S0 Psi Delta Is Ic 
0.600 1200.2 65.593 35.114 167.162 -0.20909 0.91752 
0.625 1098.6 76.698 39.241 167.206 -0.21699 0.95553 
0.650 997.0 68.351 43.331 166.873 -0.22672 0.97222 
0.675 997.0 65.683 34.448 166.102 -0.22409 0.90561 
0.700 895.4 64.199 36.322 165.891 -0.23267 0.92568 
0.725 895.4 74.577 40.420 165.806 -0.24208 0.95711 
0.750 895.4 76.485 41.692 165.481 -0.24903 0.96162 
0.775 793.8 70.234 40.023 165.036 -0.25432 0.95154 
0.800 501.7 62.941 39.165 164.638 -0.25944 0.94434 
0.825 698.5 62.252 43.905 164.518 -0.26675 0.96301 
0.850 800.1 79.756 38.271 163.926 -0.26928 0.93452 
0.875 501.7 64.413 41.609 163.895 -0.27546 0.95403 
0.900 603.3 67.112 38.005 163.246 -0.27971 0.92914 
0.925 704.9 71.819 38.613 162.992 -0.28526 0.93260 
0.950 704.9 63.433 38.157 162.566 -0.29109 0.92698 
0.975 508.0 63.008 37.701 162.103 -0.29739 0.92089 
1.000 704.9 62.409 37.944 161.856 -0.30202 0.92159 
1.025 704.9 65.228 39.768 161.603 -0.31035 0.93312 
1.050 508.0 84.011 37.918 161.159 -0.31312 0.91765 
1.075 704.9 61.289 37.971 160.828 -0.31857 0.91624 
1.100 704.9 67.198 38.526 160.524 -0.32494 0.91881 
1.125 704.9 66.775 39.329 160.300 -0.33052 0.92309 
1.150 616.0 61.451 37.791 159.772 -0.33487 0.90877 
1.175 616.0 65.566 38.595 159.545 -0.34077 0.91363 
1.200 717.6 68.869 37.442 159.064 -0.34496 0.90166 
1.225 520.7 71.384 39.097 158.981 -0.35109 0.91371 
1.250 336.6 61.525 37.417 158.600 -0.35216 0.89863 
1.275 635.0 80.503 38.341 158.335 -0.35924 0.90437 
1.300 539.8 60.769 37.928 157.963 -0.36382 0.89884 
1.325 736.6 69.165 38.097 157.692 -0.36862 0.89843 
1.350 438.2 65.543 38.220 157.370 -0.37406 0.89728 
1.375 838.2 76.383 37.666 157.087 -0.37664 0.89108 
1.400 552.5 61.607 38.124 156.836 -0.38209 0.89303 
1.425 1352.6 72.078 37.900 156.558 -0.38566 0.88943 
1.450 2254.3 63.931 37.635 156.256 -0.38942 0.88527 
1.475 615.0 82.838 36.868 155.871 -0.39242 0.87610 
1.500 452.0 64.440 37.489 155.746 -0.39674 0.88057 
1.525 553.0 76.187 37.652 155.399 -0.40268 0.87949 
1.550 499.0 70.705 37.670 155.240 -0.40518 0.87851 
1.575 535.0 65.695 36.958 154.887 -0.40779 0.87003 
1.600 535.0 73.900 36.850 154.633 -0.41119 0.86726 
1.625 491.0 72.417 36.794 154.338 -0.41542 0.86464 
1.650 491.0 63.449 37.299 154.202 -0.41957 0.86800 
1.675 491.0 75.125 36.614 153.809 -0.42258 0.85916 
1.700 477.0 68.591 36.654 153.591 -0.42604 0.85790 
1.725 468.0 68.950 36.489 153.306 -0.42954 0.85428 
1.750 468.0 77.113 36.569 153.200 -0.43149 0.85420 
1.775 454.0 70.230 36.334 152.884 -0.43510 0.84967 
1.800 439.0 70.463 36.516 152.727 -0.43829 0.85014 
1.825 439.0 74.509 36.121 152.470 -0.44018 0.84451 
1.850 429.0 69.310 36.111 152.216 -0.44388 0.84246 
1.875 429.0 74.464 35.925 152.007 -0.44601 0.83907 
1.900 419.0 70.700 35.765 151.797 -0.44825 0.83588 
1.925 419.0 75.746 35.798 151.608 -0.45118 0.83472 
1.950 410.0 70.114 35.722 151.420 -0.45352 0.83250 
1.975 410.0 76.893 35.526 151.141 -0.45650 0.82835 
2.000 401.0 69.515 35.735 151.064 -0.45875 0.82980 
2.025 401.0 70.702 35.544 150.822 -0.46121 0.82597 
2.050 401.0 68.871 35.434 150.642 -0.46319 0.82343 
2.075 393.0 70.220 35.237 150.411 -0.46537 0.81958 
2.100 393.0 73.104 35.176 150.197 -0.46809 0.81721 
2.125 393.0 75.324 35.092 150.003 -0.47035 0.81476 
2.150 393.0 76.748 35.063 149.778 -0.47337 0.81262 
2.175 393.0 78.011 34.978 149.600 -0.47538 0.81028 
2.200 393.0 79.216 34.856 149.373 -0.47785 0.80712 
2.225 386.0 70.773 34.741 149.131 -0.48052 0.80390 
2.250 386.0 71.825 34.702 148.929 -0.48311 0.80178 
2.275 386.0 72.297 34.623 148.700 -0.48581 0.79901 
2.300 386.0 72.003 34.512 148.462 -0.48841 0.79581 
2.325 386.0 72.172 34.473 148.265 -0.49088 0.79371 
2.350 386.0 72.169 34.312 148.034 -0.49300 0.79001 
2.375 386.0 72.412 34.139 147.817 -0.49480 0.78626 
2.400 386.0 72.426 33.945 147.642 -0.49585 0.78260 
2.425 386.0 74.432 33.768 147.518 -0.49628 0.77955 
2.450 377.0 70.240 33.520 147.437 -0.49559 0.77602 
2.475 377.0 68.926 33.313 147.446 -0.49393 0.77371 
2.500 362.0 71.181 32.779 147.559 -0.48835 0.76831 
2.525 362.0 71.307 32.768 147.770 -0.48543 0.76997 
2.550 362.0 69.642 32.469 147.893 -0.48146 0.76731 
2.575 362.0 73.968 32.415 148.117 -0.47804 0.76851 
2.600 362.0 67.921 32.516 148.288 -0.47652 0.77120 
2.625 355.0 70.218 32.549 148.402 -0.47524 0.77257 
2.650 355.0 73.693 32.290 148.410 -0.47311 0.76935 
2.675 355.0 63.189 32.441 148.490 -0.47322 0.77193 
2.700 364.0 68.692 32.251 148.453 -0.47223 0.76920 
2.725 364.0 63.478 32.594 148.562 -0.47343 0.77445 
2.750 364.0 66.209 32.546 148.508 -0.47379 0.77340 
2.775 374.0 69.196 32.400 148.458 -0.47334 0.77114 
2.800 374.0 67.536 32.323 148.358 -0.47407 0.76934 
2.825 374.0 66.448 32.472 148.368 -0.47511 0.77131 
2.850 374.0 62.399 32.507 148.306 -0.47622 0.77123 
2.875 374.0 59.985 32.433 148.246 -0.47644 0.76981 
2.900 383.0 68.898 32.372 148.166 -0.47703 0.76837 
2.925 383.0 67.247 32.333 148.070 -0.47802 0.76708 
2.950 383.0 66.373 32.522 148.089 -0.47924 0.76961 
2.975 383.0 62.057 32.359 148.004 -0.47910 0.76685 
3.000 383.0 59.381 32.273 147.962 -0.47899 0.76541 
3.025 393.0 68.372 32.347 147.870 -0.48080 0.76557 
3.050 393.0 64.689 32.173 147.773 -0.48071 0.76255 
3.075 393.0 61.598 32.087 147.743 -0.48042 0.76120 
3.100 393.0 77.357 32.053 147.704 -0.48066 0.76043 
3.125 393.0 74.372 32.125 147.693 -0.48139 0.76127 
3.150 393.0 69.229 32.053 147.677 -0.48102 0.76021 
3.175 393.0 64.701 31.901 147.638 -0.48027 0.75791 
3.200 393.0 60.352 31.881 147.695 -0.47936 0.75814 
3.225 402.0 67.569 31.675 147.695 -0.47765 0.75542 
3.250 402.0 63.526 31.660 147.801 -0.47612 0.75610 
3.275 411.0 69.213 31.661 147.987 -0.47368 0.75767 
3.300 411.0 63.457 31.531 148.180 -0.47004 0.75751 
3.325 422.0 69.285 31.377 148.452 -0.46517 0.75765 
3.350 422.0 64.419 31.577 148.861 -0.46138 0.76366 
3.375 422.0 63.465 31.636 149.186 -0.45751 0.76706 
3.400 422.0 62.547 31.605 149.482 -0.45330 0.76900 
3.425 422.0 60.513 31.812 149.772 -0.45103 0.77409 
3.450 431.0 67.829 31.927 149.957 -0.44941 0.77707 
3.475 431.0 64.625 31.950 150.076 -0.44798 0.77830 
3.500 431.0 61.358 32.176 150.155 -0.44863 0.78191 
3.525 442.0 69.613 32.337 150.242 -0.44863 0.78470 
3.550 442.0 66.373 32.468 150.279 -0.44910 0.78668 
3.575 442.0 63.339 32.643 150.354 -0.44933 0.78950 
3.600 442.0 60.973 32.650 150.301 -0.45011 0.78917 
3.625 451.0 68.164 32.897 150.303 -0.45186 0.79227 
3.650 451.0 65.806 33.053 150.293 -0.45309 0.79414 
3.675 451.0 64.213 33.290 150.246 -0.45539 0.79664 
3.700 451.0 62.712 33.483 150.174 -0.45771 0.79837 
3.725 451.0 61.450 33.590 149.988 -0.46104 0.79814 
3.750 451.0 59.025 33.976 149.893 -0.46493 0.80183 
3.775 463.0 69.238 34.044 149.637 -0.46896 0.80050 
3.800 463.0 65.861 34.131 149.326 -0.47388 0.79892 
3.825 463.0 61.737 34.385 149.054 -0.47933 0.79945 
3.850 473.0 67.134 34.490 148.767 -0.48401 0.79817 
3.875 473.0 61.270 34.775 148.405 -0.49089 0.79809 
3.900 486.0 68.358 35.081 148.048 -0.49781 0.79813 
3.925 486.0 63.056 35.194 147.486 -0.50633 0.79434 
3.950 497.0 69.336 35.411 147.010 -0.51427 0.79222 
3.975 497.0 64.863 35.428 146.480 -0.52169 0.78758 
4.000 497.0 60.507 35.620 146.090 -0.52825 0.78582 
4.025 511.0 70.210 35.715 145.432 -0.53784 0.78058 
4.050 511.0 66.817 35.744 144.813 -0.54643 0.77499 
4.075 511.0 62.726 35.791 144.190 -0.55512 0.76943 
4.100 511.0 59.097 35.965 143.562 -0.56466 0.76482 
4.125 524.0 67.561 36.092 142.979 -0.57323 0.76013 
4.150 524.0 64.420 36.113 142.186 -0.58383 0.75229 
4.175 524.0 61.936 36.285 141.508 -0.59383 0.74676 
4.200 524.0 60.621 36.297 140.736 -0.60391 0.73879 
4.225 535.0 69.308 36.364 139.936 -0.61461 0.73081 
4.250 535.0 67.404 36.435 139.087 -0.62586 0.72218 
4.275 535.0 65.430 36.343 138.313 -0.63493 0.71295 
4.300 508.0 71.392 35.631 137.163 -0.64387 0.69443 
4.325 508.0 76.505 35.471 136.404 -0.65178 0.68452 
4.350 499.0 69.931 35.592 135.817 -0.65971 0.67879 
4.375 499.0 73.106 34.973 135.101 -0.66306 0.66541 
4.400 499.0 74.953 34.958 134.733 -0.66720 0.66100 
4.425 499.0 76.497 35.054 134.373 -0.67215 0.65759 
4.450 499.0 78.008 34.872 133.979 -0.67509 0.65145 
4.475 499.0 78.956 34.549 133.520 -0.67742 0.64329 
4.500 499.0 79.046 34.672 133.285 -0.68116 0.64156 
4.525 499.0 77.926 34.543 132.910 -0.68418 0.63599 
4.550 499.0 77.239 34.376 132.526 -0.68687 0.62997 
4.575 499.0 75.469 34.491 132.346 -0.68992 0.62879 
4.600 499.0 73.874 34.350 131.919 -0.69327 0.62244 
4.625 499.0 71.449 34.042 131.565 -0.69413 0.61553 
4.650 499.0 69.430 34.188 131.275 -0.69865 0.61325 
4.675 499.0 67.464 33.982 130.884 -0.70080 0.60672 
4.700 499.0 64.287 33.750 130.500 -0.70252 0.60001 
4.725 499.0 62.320 33.463 130.159 -0.70311 0.59331 
4.750 499.0 59.223 33.694 129.977 -0.70739 0.59310 
4.775 510.0 67.017 33.526 129.703 -0.70848 0.58825 
4.800 510.0 64.155 33.609 129.346 -0.71300 0.58453 
4.825 510.0 60.922 33.339 129.047 -0.71317 0.57849 
4.850 525.0 71.253 33.408 128.893 -0.71547 0.57716 
4.875 525.0 67.898 33.576 128.560 -0.72060 0.57443 
4.900 525.0 64.393 33.018 127.840 -0.72164 0.56058 
4.925 525.0 62.007 33.017 127.827 -0.72177 0.56041 
4.950 525.0 58.816 33.145 127.613 -0.72528 0.55881 
4.975 541.0 69.672 32.990 127.342 -0.72618 0.55404 
5.000 541.0 66.483 32.820 126.975 -0.72778 0.54792 
5.025 541.0 62.049 32.467 126.466 -0.72847 0.53836 
5.050 553.0 69.438 32.631 126.550 -0.72962 0.54088 
5.075 553.0 65.541 32.344 126.107 -0.73035 0.53272 
5.100 553.0 61.582 32.527 126.088 -0.73272 0.53408 
5.125 568.0 69.842 32.408 125.773 -0.73422 0.52901 
5.150 568.0 64.827 32.034 125.369 -0.73334 0.52057 
5.175 568.0 60.355 32.238 125.478 -0.73486 0.52375 
5.200 586.0 70.882 32.269 125.329 -0.73661 0.52210 
5.225 586.0 66.472 31.945 124.783 -0.73751 0.51225 
5.250 586.0 61.020 31.694 124.350 -0.73814 0.50447 
5.275 600.0 67.504 31.712 124.369 -0.73822 0.50487 
5.300 600.0 62.876 31.400 123.791 -0.73917 0.49466 
5.325 612.0 67.348 31.213 123.433 -0.73974 0.48839 
5.350 612.0 62.816 31.199 123.394 -0.73988 0.48774 
5.375 624.0 67.501 31.111 123.248 -0.73993 0.48508 
5.400 624.0 62.742 31.088 123.316 -0.73904 0.48576 
5.425 637.0 68.016 30.933 122.811 -0.74116 0.47785 
5.450 637.0 63.440 30.827 122.872 -0.73919 0.47769 
5.475 650.0 67.982 30.732 122.507 -0.74088 0.47211 
5.500 650.0 63.210 30.494 122.200 -0.74001 0.46602 
5.525 663.0 67.200 30.302 121.988 -0.73896 0.46154 
5.550 663.0 61.903 30.198 121.804 -0.73891 0.45822 
5.575 663.0 56.538 30.131 121.721 -0.73859 0.45653 
5.600 683.0 64.894 29.906 121.516 -0.73688 0.45184 
5.625 683.0 58.964 29.626 121.090 -0.73597 0.44380 
5.650 704.0 66.955 29.781 121.562 -0.73464 0.45128 
5.675 719.0 71.785 29.258 120.440 -0.73524 0.43205 
5.700 719.0 65.131 29.495 121.362 -0.73186 0.44606 
5.725 737.0 70.250 29.191 120.785 -0.73157 0.43584 
5.750 737.0 64.048 29.290 120.741 -0.73346 0.43620 
5.775 737.0 57.351 29.273 121.256 -0.72925 0.44263 
5.800 760.0 64.448 28.751 120.366 -0.72771 0.42636 
5.825 778.0 68.991 28.749 120.018 -0.73025 0.42192 
5.850 780.0 62.827 28.479 120.486 -0.72239 0.42528 
5.875 780.0 56.141 28.258 120.698 -0.71717 0.42579 
5.900 780.0 49.406 28.447 120.445 -0.72216 0.42444 
5.925 780.0 43.876 28.094 120.087 -0.71892 0.41652 
5.950 780.0 38.961 27.807 119.975 -0.71487 0.41232 
5.975 780.0 34.249 27.358 119.601 -0.70976 0.40321 
6.000 780.0 30.848 27.385 119.885 -0.70823 0.40700 
6.025 780.0 27.368 27.233 119.535 -0.70803 0.40116 
6.050 780.0 24.366 26.902 119.749 -0.70063 0.40043 
6.075 780.0 21.915 26.747 120.013 -0.69602 0.40205 
6.100 780.0 19.642 26.816 120.052 -0.69697 0.40325 
6.125 780.0 17.541 26.654 120.414 -0.69152 0.40595 
6.150 780.0 15.892 26.512 121.942 -0.67792 0.42266 
6.175 780.0 14.339 26.132 120.612 -0.68061 0.40271 
6.200 780.0 13.083 25.903 120.190 -0.67932 0.39521 
6.225 780.0 11.914 25.842 119.839 -0.68058 0.39039 
6.250 780.0 10.900 25.442 120.654 -0.66745 0.39558 
6.275 780.0 9.892 25.268 120.955 -0.66206 0.39709 
6.300 780.0 8.908 25.377 121.308 -0.66167 0.40243 
6.325 780.0 7.979 24.794 120.126 -0.65855 0.38215 
6.350 780.0 7.270 25.029 120.837 -0.65830 0.39300 
6.375 780.0 6.517 24.450 121.267 -0.64412 0.39112 
6.400 780.0 5.847 24.600 121.658 -0.64434 0.39731 
6.425 780.0 5.278 23.601 121.674 -0.62447 0.38529 
6.450 780.0 4.631 23.882 119.936 -0.64160 0.36947 
6.475 780.0 4.195 23.451 122.317 -0.61709 0.39036 
6.500 780.0 3.707 22.531 119.604 -0.61547 0.34969 

# MINIMA:
0.600 336.6 3.707 22.531 119.535 -0.74116 0.34969 

# MAXIMA:
6.500 2254.3 84.011 43.905 167.206 -0.20909 0.97222 

# PEAKS:

# END SPECTRUM


# SPECTRUM:
2

# START TIME:
10:49:08

# END TIME:
10:59:32

# THETA ANGLE:
0.00 ø

# INCIDENCE ANGLE:
60.00 ø

# ACCUMULATION NUMBER:
1

# ELLIPSOMETRIC CONFIGURATION:
0.00 ø :Modulator
-45.00 øAnalyser

# INTEGRATION TIME:
500 ms

# FIRST POINT:
0.6000 eV

# LAST POINT:
6.5000 eV

# INCREMENT:
0.0250 eV

# NUMBER OF POINTS:
237

# DATA:
eV Hv S0 Psi Delta Is Ic 
0.600 1098.6 70.615 42.701 164.014 -0.27452 0.95823 
0.625 997.0 75.417 41.399 163.647 -0.27933 0.95197 
0.650 895.4 66.787 45.000 163.522 -0.29134 0.98497 
0.675 895.4 62.123 36.894 162.596 -0.28722 0.91627 
0.700 895.4 75.132 39.330 162.365 -0.29704 0.93440 
0.725 793.8 66.208 37.319 161.533 -0.30545 0.91462 
0.750 793.8 66.629 36.345 161.071 -0.30970 0.90308 
0.775 793.8 77.321 34.956 160.446 -0.31433 0.88501 
0.800 495.3 64.695 40.340 160.551 -0.32857 0.93049 
0.825 692.2 67.655 37.097 159.844 -0.33155 0.90326 
0.850 692.2 63.835 38.603 159.447 -0.34236 0.91310 
0.875 495.3 64.405 38.575 159.188 -0.34640 0.91134 
0.900 596.9 71.836 37.359 158.460 -0.35416 0.89727 
0.925 698.5 75.656 37.452 158.111 -0.35995 0.89589 
0.950 698.5 67.458 38.125 157.735 -0.36803 0.89892 
0.975 501.7 69.156 37.242 157.244 -0.37272 0.88855 
1.000 698.5 67.085 38.665 157.019 -0.38092 0.89822 
1.025 698.5 69.800 36.973 156.306 -0.38618 0.87999 
1.050 425.5 60.968 37.396 155.965 -0.39304 0.88131 
1.075 723.9 72.660 39.297 155.822 -0.40149 0.89426 
1.100 641.4 60.970 37.216 155.063 -0.40616 0.87350 
1.125 730.3 81.842 37.983 154.752 -0.41381 0.87747 
1.150 628.7 70.689 37.046 154.254 -0.41774 0.86624 
1.175 628.7 75.537 37.568 153.921 -0.42490 0.86813 
1.200 730.3 79.552 37.080 153.421 -0.43044 0.86036 
1.225 476.3 62.920 36.910 152.936 -0.43697 0.85522 
1.250 330.2 60.541 36.848 152.550 -0.44244 0.85173 
1.275 609.6 78.834 36.664 152.235 -0.44627 0.84767 
1.300 527.1 62.420 37.011 151.871 -0.45324 0.84782 
1.325 723.9 72.903 36.417 151.344 -0.45818 0.83842 
1.350 425.5 67.315 36.689 151.038 -0.46400 0.83838 
1.375 825.5 82.583 36.443 150.722 -0.46740 0.83364 
1.400 533.4 63.803 36.363 150.388 -0.47183 0.83018 
1.425 1231.9 67.153 36.695 150.066 -0.47819 0.83044 
1.450 1828.8 61.129 36.564 149.703 -0.48277 0.82626 
1.475 780.0 0.000 0.000 0.000 0.00000 0.00000 
1.500 439.0 58.583 35.934 148.894 -0.49096 0.81370 
1.525 540.0 73.801 35.872 148.548 -0.49552 0.81014 
1.550 490.0 72.094 35.683 148.245 -0.49870 0.80573 
1.575 524.0 65.307 35.502 147.823 -0.50354 0.80031 
1.600 524.0 73.622 35.120 147.463 -0.50617 0.79340 
1.625 482.0 70.805 35.154 147.179 -0.51031 0.79123 
1.650 482.0 63.080 35.300 146.852 -0.51576 0.78972 
1.675 482.0 74.766 35.073 146.472 -0.51951 0.78407 
1.700 470.0 70.707 34.923 146.102 -0.52357 0.77921 
1.725 459.0 68.432 34.966 145.932 -0.52618 0.77808 
1.750 459.0 76.588 34.800 145.627 -0.52917 0.77361 
1.775 446.0 70.262 34.615 145.215 -0.53342 0.76793 
1.800 432.0 70.232 34.631 144.977 -0.53672 0.76587 
1.825 432.0 74.782 34.541 144.705 -0.53971 0.76239 
1.850 423.0 70.137 34.268 144.342 -0.54252 0.75616 
1.875 423.0 74.807 34.179 144.037 -0.54587 0.75234 
1.900 412.0 69.255 34.028 143.728 -0.54876 0.74781 
1.925 412.0 74.629 34.007 143.496 -0.55161 0.74536 
1.950 403.0 69.291 33.945 143.237 -0.55449 0.74220 
1.975 403.0 74.577 33.808 143.008 -0.55636 0.73854 
2.000 396.0 69.882 33.748 142.698 -0.55988 0.73488 
2.025 396.0 71.132 33.629 142.402 -0.56268 0.73071 
2.050 396.0 69.530 33.466 142.114 -0.56499 0.72613 
2.075 387.0 69.431 33.512 141.893 -0.56818 0.72443 
2.100 387.0 72.597 33.222 141.546 -0.57006 0.71785 
2.125 387.0 74.754 33.150 141.239 -0.57327 0.71400 
2.150 387.0 76.019 33.113 141.013 -0.57577 0.71133 
2.175 387.0 77.546 33.039 140.740 -0.57848 0.70777 
2.200 387.0 78.918 32.944 140.457 -0.58111 0.70386 
2.225 379.0 68.959 32.774 140.103 -0.58387 0.69839 
2.250 379.0 69.920 32.664 139.787 -0.58670 0.69393 
2.275 379.0 70.585 32.518 139.424 -0.58968 0.68859 
2.300 379.0 70.411 32.452 139.140 -0.59246 0.68492 
2.325 379.0 70.830 32.345 138.838 -0.59501 0.68058 
2.350 379.0 71.013 32.181 138.511 -0.59726 0.67533 
2.375 379.0 71.122 32.017 138.242 -0.59875 0.67066 
2.400 379.0 71.149 31.785 137.936 -0.59994 0.66480 
2.425 379.0 73.307 31.554 137.755 -0.59959 0.66022 
2.450 371.0 70.465 31.303 137.617 -0.59849 0.65583 
2.475 371.0 69.488 31.036 137.604 -0.59572 0.65249 
2.500 358.0 71.064 30.537 137.713 -0.58890 0.64748 
2.525 358.0 70.910 30.462 137.944 -0.58544 0.64892 
2.550 358.0 69.335 30.180 138.036 -0.58117 0.64628 
2.575 358.0 73.414 30.098 138.306 -0.57718 0.64794 
2.600 358.0 67.561 30.083 138.419 -0.57572 0.64888 
2.625 350.0 68.572 30.037 138.549 -0.57372 0.64959 
2.650 350.0 71.111 29.961 138.584 -0.57244 0.64894 
2.675 350.0 61.413 30.017 138.631 -0.57255 0.65015 
2.700 360.0 68.564 29.981 138.659 -0.57183 0.64995 
2.725 360.0 63.709 30.032 138.611 -0.57295 0.65014 
2.750 360.0 66.110 30.059 138.607 -0.57332 0.65046 
2.775 370.0 69.615 29.935 138.564 -0.57237 0.64839 
2.800 370.0 67.903 29.983 138.463 -0.57406 0.64802 
2.825 370.0 66.693 29.914 138.351 -0.57453 0.64599 
2.850 370.0 62.686 29.943 138.230 -0.57622 0.64516 
2.875 370.0 60.566 29.840 138.150 -0.57592 0.64301 
2.900 379.0 70.120 29.874 138.082 -0.57708 0.64277 
2.925 379.0 68.118 29.790 137.913 -0.57799 0.63997 
2.950 379.0 67.133 29.845 137.860 -0.57923 0.64016 
2.975 379.0 62.872 29.815 137.764 -0.57994 0.63879 
3.000 379.0 60.415 29.672 137.599 -0.58008 0.63524 
3.025 388.0 68.194 29.687 137.538 -0.58093 0.63482 
3.050 388.0 64.443 29.667 137.458 -0.58158 0.63374 
3.075 388.0 61.448 29.512 137.321 -0.58122 0.63031 
3.100 388.0 77.036 29.579 137.349 -0.58172 0.63148 
3.125 388.0 73.969 29.446 137.179 -0.58197 0.62801 
3.150 388.0 69.179 29.355 137.129 -0.58139 0.62629 
3.175 388.0 64.788 29.251 137.030 -0.58118 0.62390 
3.200 388.0 60.450 29.161 136.984 -0.58055 0.62223 
3.225 398.0 68.902 29.027 136.986 -0.57885 0.62044 
3.250 398.0 65.017 28.958 137.059 -0.57720 0.62025 
3.275 398.0 60.509 28.836 137.173 -0.57442 0.61973 
3.300 410.0 68.818 28.701 137.283 -0.57151 0.61897 
3.325 410.0 61.743 28.687 137.642 -0.56745 0.62236 
3.350 420.0 68.576 28.609 137.937 -0.56325 0.62417 
3.375 420.0 67.989 28.692 138.484 -0.55830 0.63069 
3.400 420.0 66.750 28.648 138.738 -0.55496 0.63254 
3.425 420.0 64.740 28.765 139.140 -0.55194 0.63808 
3.450 420.0 62.084 28.842 139.379 -0.55021 0.64146 
3.475 429.0 69.132 28.856 139.537 -0.54861 0.64317 
3.500 429.0 65.418 29.080 139.786 -0.54849 0.64873 
3.525 429.0 61.729 29.182 139.965 -0.54767 0.65188 
