## SPECTRUM TYPE:
Spectroscopic

## DATE:
1/30/2012

## COMMENTS:

## NUMBER OF SPECTRUM:
5

## ELLIPSOMETRIC CONFIGURATION:
0.00 ø :Modulator
+45.00 øAnalyser

## UNIT:
eV


# SPECTRUM:
1

# START TIME:
11:32:52

# END TIME:
11:44:44

# THETA ANGLE:
0.00 ø

# INCIDENCE ANGLE:
55.00 ø

# ACCUMULATION NUMBER:
1

# ELLIPSOMETRIC CONFIGURATION:
0.00 ø :Modulator
+45.00 øAnalyser

# INTEGRATION TIME:
500 ms

# FIRST POINT:
0.6000 eV

# LAST POINT:
6.5000 eV

# INCREMENT:
0.0250 eV

# NUMBER OF POINTS:
237

# DATA:
eV Hv S0 Psi Delta Is Ic
0.6 3898.9 30.418 41.605 167.478 0.21529 -0.96936 
0.625 4000.5 47.845 41.493 167.155 0.22065 -0.96768 
0.65 4000.5 56.405 41.307 166.882 0.22508 -0.96582 
0.675 4000.5 62.357 41.08 166.391 0.2331 -0.96284 
0.7 3898.9 79.437 40.997 166.075 0.23831 -0.96115 
0.725 2997.2 78.406 40.742 165.684 0.24455 -0.95826 
0.75 2698.8 78.311 40.733 165.298 0.25098 -0.95655 
0.775 2000.3 77.19 40.675 164.971 0.25636 -0.95481 
0.8 1098.6 69.239 40.724 164.602 0.26257 -0.95338 
0.825 1397 63.762 40.656 164.377 0.26622 -0.952 
0.85 1397 65.28 40.475 163.931 0.27335 -0.94896 
0.875 997 74.154 40.485 163.636 0.27825 -0.9476 
0.9 1098.6 71.342 40.289 163.248 0.28435 -0.94464 
0.925 1200.2 69.778 40.257 162.879 0.29036 -0.94262 
0.95 1200.2 65.473 40.176 162.563 0.29541 -0.94056 
0.975 901.7 74.522 40.268 162.216 0.30127 -0.93925 
1 1200.2 73.038 40.185 161.9 0.30631 -0.93712 
1.025 1098.6 66.222 39.938 161.551 0.31154 -0.93384 
1.05 698.5 62.8 39.943 161.212 0.31706 -0.932 
1.075 1098.6 70.95 39.846 160.856 0.32265 -0.92945 
1.1 997 64.562 39.803 160.544 0.32762 -0.92742 
1.125 997 68.145 39.599 160.21 0.33257 -0.92427 
1.15 895.4 67.92 39.483 159.832 0.3384 -0.92133 
1.175 895.4 73.901 39.487 159.562 0.34275 -0.91975 
1.2 997 75.405 39.368 159.216 0.34802 -0.91692 
1.225 698.5 71.758 39.273 158.897 0.35288 -0.91435 
1.25 438.2 62.479 39.136 158.557 0.35795 -0.91135 
1.275 736.6 65.837 39.09 158.296 0.36197 -0.90941 
1.3 736.6 73.236 38.777 157.858 0.36804 -0.90448 
1.325 838.2 61.963 38.86 157.656 0.37146 -0.90376 
1.35 539.8 67.714 38.635 157.347 0.37568 -0.90017 
1.375 939.8 72.209 38.59 157.076 0.3798 -0.89807 
1.4 641.4 62.714 38.63 156.856 0.38336 -0.89688 
1.425 1441.5 64.243 38.485 156.516 0.38824 -0.89355 
1.45 2641.6 60.774 38.625 156.145 0.39446 -0.89202 
1.475 692 76.054 38.164 155.82 0.398 -0.88641 
1.5 517 65.184 37.892 155.557 0.40111 -0.8825 
1.525 609 63.161 37.753 155.459 0.40213 -0.88071 
1.55 564 72.565 37.768 155.103 0.40765 -0.87831 
1.575 601 66.29 37.662 154.845 0.4112 -0.87563 
1.6 601 77.575 37.573 154.597 0.41464 -0.87313 
1.625 551 72.886 37.416 154.303 0.4185 -0.86971 
1.65 551 68.865 37.3 154.053 0.42182 -0.86692 
1.675 538 69.748 37.193 153.811 0.42504 -0.86424 
1.7 527 70.19 37.164 153.555 0.42877 -0.86208 
1.725 516 71.642 36.989 153.326 0.43147 -0.85887 
1.75 505 70.303 36.902 153.064 0.43502 -0.85613 
1.775 493 69.405 36.743 152.913 0.43656 -0.85359 
1.8 478 70.947 36.715 152.644 0.44044 -0.85129 
1.825 478 77.719 36.684 152.434 0.44341 -0.84939 
1.85 463 69.581 36.562 152.194 0.44639 -0.84644 
1.875 463 76.927 36.424 152.016 0.44835 -0.84381 
1.9 449 70.731 36.291 151.792 0.45099 -0.84083 
1.925 441 68.333 36.219 151.531 0.45446 -0.8381 
1.95 441 75.972 36.098 151.405 0.45569 -0.83597 
1.975 430 70.245 36 151.178 0.4585 -0.83323 
2 430 76.328 36.015 150.968 0.46162 -0.83169 
2.025 422 69.742 35.844 150.808 0.46303 -0.82878 
2.05 422 69.795 35.771 150.59 0.46579 -0.82632 
2.075 411 69.781 35.578 150.397 0.4675 -0.82287 
2.1 411 74.464 35.612 150.19 0.47067 -0.82151 
2.125 411 78.47 35.426 149.954 0.47299 -0.81774 
2.15 402 69.742 35.361 149.766 0.4753 -0.81553 
2.175 402 72.895 35.338 149.594 0.47761 -0.81387 
2.2 402 75.873 35.204 149.369 0.48001 -0.81065 
2.225 402 78.993 35.198 149.078 0.48408 -0.80814 
2.25 393 69.854 34.945 148.88 0.48532 -0.8039 
2.275 393 71.857 34.933 148.654 0.48841 -0.80185 
2.3 393 72.962 34.769 148.424 0.49058 -0.79819 
2.325 393 75.341 34.665 148.213 0.49286 -0.79529 
2.35 393 77.564 34.509 148 0.49479 -0.79182 
2.375 386 69.221 34.294 147.773 0.49647 -0.78755 
2.4 386 70.989 34.176 147.589 0.49818 -0.78469 
2.425 386 74.88 33.954 147.495 0.49792 -0.78143 
2.45 375 69.615 33.734 147.425 0.49731 -0.77837 
2.475 375 69.607 33.418 147.479 0.49426 -0.77522 
2.5 411 65.63 33.114 147.472 0.4921 -0.7716 
2.525 411 66.282 32.979 147.627 0.48898 -0.77131 
2.55 411 65.792 32.853 147.848 0.48504 -0.77167 
2.575 411 70.046 32.803 147.983 0.48284 -0.7722 
2.6 411 66.276 32.737 148.203 0.47938 -0.77324 
2.625 411 79.108 32.741 148.29 0.47822 -0.77401 
2.65 401 68.802 32.692 148.331 0.4773 -0.77374 
2.675 401 60.51 32.679 148.382 0.47651 -0.77401 
2.7 412 68.227 32.707 148.375 0.47682 -0.7743 
2.725 412 64.663 32.676 148.415 0.47604 -0.77425 
2.75 412 67.99 32.681 148.391 0.47641 -0.77412 
2.775 412 59.79 32.597 148.354 0.47625 -0.77276 
2.8 421 69.29 32.65 148.304 0.47734 -0.773 
2.825 421 69.127 32.611 148.268 0.47753 -0.77222 
2.85 421 66.038 32.584 148.192 0.47835 -0.77124 
2.875 421 64.51 32.541 148.136 0.47876 -0.77024 
2.9 421 63.482 32.543 148.072 0.47964 -0.76972 
2.925 421 62.743 32.5 147.978 0.48057 -0.7684 
2.95 421 62.816 32.428 147.919 0.48079 -0.76702 
2.975 421 59.89 32.39 147.813 0.4819 -0.76564 
3 430 68.323 32.342 147.813 0.48153 -0.76503 
3.025 430 65.884 32.325 147.768 0.482 -0.76444 
3.05 430 63.322 32.249 147.736 0.48181 -0.76321 
3.075 430 61.202 32.228 147.652 0.48275 -0.76224 
3.1 430 77.977 32.192 147.635 0.4827 -0.76163 
3.125 430 75.991 32.152 147.617 0.48262 -0.76097 
3.15 430 72.261 32.057 147.596 0.48212 -0.75957 
3.175 430 68.456 31.985 147.567 0.48192 -0.7584 
3.2 430 65.199 31.943 147.591 0.48126 -0.75807 
3.225 430 62.784 31.836 147.641 0.47971 -0.75709 
3.25 430 60.064 31.773 147.717 0.47817 -0.7569 
3.275 441 68.359 31.689 147.937 0.47458 -0.75761 
3.3 441 63.153 31.604 148.104 0.47167 -0.75787 
3.325 451 68.053 31.589 148.402 0.46757 -0.76011 
3.35 451 64.085 31.575 148.773 0.46254 -0.76294 
3.375 451 64.488 31.609 149.119 0.45819 -0.76617 
3.4 451 64.314 31.709 149.439 0.45471 -0.77006 
3.425 451 62.924 31.834 149.646 0.45291 -0.77338 
3.45 451 61.181 31.903 149.914 0.44982 -0.77641 
3.475 460 68.774 32.107 150.016 0.44999 -0.77992 
3.5 460 65.698 32.243 150.159 0.44906 -0.78282 
3.525 460 63.359 32.409 150.245 0.44913 -0.78565 
3.55 460 61.202 32.549 150.261 0.44994 -0.78756 
3.575 470 69.883 32.763 150.307 0.45085 -0.79063 
3.6 470 68.102 32.868 150.327 0.45132 -0.79211 
3.625 470 66.827 33.046 150.319 0.45268 -0.79425 
3.65 470 65.541 33.305 150.327 0.45437 -0.79747 
3.675 470 65.414 33.478 150.244 0.4567 -0.79887 
3.7 470 64.691 33.74 150.137 0.45996 -0.80109 
3.725 470 64.262 33.834 149.978 0.4628 -0.8009 
3.75 470 63.512 34.106 149.795 0.46716 -0.80249 
3.775 470 62.554 34.324 149.63 0.47088 -0.80355 
3.8 470 59.626 34.552 149.389 0.47571 -0.80404 
3.825 481 68.084 34.758 149.108 0.48096 -0.80388 
3.85 481 63.969 35.006 148.767 0.48729 -0.80356 
3.875 491 69.315 35.201 148.434 0.49316 -0.80267 
3.9 491 64.593 35.443 147.979 0.501 -0.80111 
3.925 491 60.592 35.543 147.549 0.5076 -0.79828 
3.95 503 69.108 35.895 147.081 0.51623 -0.7974 
3.975 503 65.054 36.056 146.584 0.52408 -0.79435 
4 503 62.403 36.179 146.014 0.53271 -0.79017 
4.025 503 59.661 36.213 145.421 0.54105 -0.78492 
4.05 516 69.387 36.508 144.875 0.55027 -0.78223 
4.075 516 66.888 36.661 144.268 0.55942 -0.77761 
4.1 516 63.688 36.731 143.637 0.56838 -0.77196 
4.125 516 61.05 36.767 142.956 0.57772 -0.76544 
4.15 516 59.096 36.917 142.228 0.5883 -0.7592 
4.175 527 67.935 37.035 141.562 0.59779 -0.7532 
4.2 527 67.492 36.994 140.817 0.60729 -0.74506 
4.225 527 66.974 37.064 139.932 0.61915 -0.7361 
4.25 527 66.442 37.076 139.117 0.62964 -0.72731 
4.275 527 64.847 37.196 138.255 0.64127 -0.7186 
4.3 557 65.6 36.763 136.977 0.65429 -0.70107 
4.325 557 71.498 36.63 136.223 0.66253 -0.69144 
4.35 557 76.679 36.602 135.563 0.67026 -0.68355 
4.375 547 71.054 36.358 135.048 0.67461 -0.67575 
4.4 547 74.373 36.184 134.53 0.67939 -0.66834 
4.425 547 77.357 36.009 134.161 0.68235 -0.66264 
4.45 547 79.354 35.877 133.771 0.68581 -0.65699 
4.475 537 70.104 35.722 133.407 0.68873 -0.65145 
4.5 537 71.271 35.584 133.092 0.69116 -0.64661 
4.525 537 71.931 35.474 132.748 0.69412 -0.6416 
4.55 537 72.089 35.383 132.386 0.69739 -0.63649 
4.575 537 71.136 35.226 131.948 0.70088 -0.62992 
4.6 537 70.167 35.14 131.686 0.703 -0.62604 
4.625 537 68.895 35.017 131.4 0.70503 -0.62157 
4.65 537 66.702 34.917 131.014 0.70829 -0.61602 
4.675 537 65.865 34.863 130.729 0.71085 -0.61206 
4.7 537 63.54 34.805 130.304 0.71484 -0.60631 
4.725 537 61.522 34.632 130.122 0.71514 -0.60268 
4.75 537 59.512 34.387 129.752 0.71666 -0.59608 
4.775 549 68.126 34.37 129.536 0.71874 -0.59325 
4.8 549 65.022 34.327 129.057 0.72326 -0.58687 
4.825 549 62.955 34.24 128.788 0.72513 -0.58277 
4.85 561 71.786 34.05 128.608 0.72505 -0.57896 
4.875 561 67.722 33.991 128.106 0.72948 -0.57211 
4.9 561 65.078 33.928 127.826 0.73162 -0.56803 
4.925 561 62.675 33.763 127.566 0.73245 -0.56337 
4.95 561 60.232 33.618 127.367 0.73286 -0.55964 
4.975 575 69.352 33.588 127.012 0.73599 -0.55485 
5 575 66.646 33.35 126.647 0.73689 -0.5482 
5.025 575 64.397 33.386 126.403 0.73962 -0.54535 
5.05 575 61.434 33.23 126.18 0.74 -0.5412 
5.075 590 69.665 33.088 125.97 0.74036 -0.53731 
5.1 590 65.299 32.932 125.735 0.74076 -0.53298 
5.125 590 61.525 32.953 125.441 0.74373 -0.52935 
5.15 604 68.798 32.809 125.341 0.74296 -0.52685 
5.175 604 64.511 32.745 125.04 0.74497 -0.52241 
5.2 617 70.303 32.647 124.776 0.74621 -0.51816 
5.225 617 65.967 32.471 124.482 0.74671 -0.51286 
5.25 617 61.406 32.43 124.246 0.74832 -0.50943 
5.275 634 70.88 32.267 124.048 0.74806 -0.50549 
5.3 634 66.485 32.19 123.721 0.74998 -0.50057 
5.325 634 61.923 32.105 123.445 0.7513 -0.49625 
5.35 648 68.324 31.935 123.382 0.74968 -0.49398 
5.375 648 64.395 31.795 123.102 0.75028 -0.48913 
5.4 648 60.62 31.613 122.761 0.75077 -0.48312 
5.425 662 66.514 31.527 122.618 0.75084 -0.48051 
5.45 662 62.078 31.458 122.457 0.75126 -0.47781 
5.475 676 68.241 31.468 122.529 0.7508 -0.47886 
5.5 676 63.131 31.313 122.193 0.75149 -0.47312 
5.525 690 68.897 31.118 121.748 0.75247 -0.4656 
5.55 690 64.098 31.166 121.737 0.75321 -0.46587 
5.575 705 69.389 30.903 121.575 0.75087 -0.46149 
5.6 705 64.087 30.813 121.415 0.75088 -0.45862 
5.625 719 67.905 30.638 121.244 0.74977 -0.45486 
5.65 719 62.462 30.53 121.196 0.74859 -0.45328 
5.675 734 67.186 30.258 120.73 0.74826 -0.44482 
5.7 748 70.256 30.19 120.968 0.74541 -0.44733 
5.725 748 63.195 30.24 120.582 0.74914 -0.44272 
5.75 748 58.371 29.791 120.283 0.74468 -0.43486 
5.775 771 65.55 29.917 120.661 0.74371 -0.44089 
5.8 771 59.062 29.709 120.346 0.74294 -0.43494 
5.825 780 58.602 29.32 119.956 0.73984 -0.42639 
5.85 780 52.967 29.499 120.555 0.73813 -0.43574 
5.875 780 47.434 29.27 119.906 0.73943 -0.4253 
5.9 780 42.704 29.073 119.027 0.7427 -0.41214 
5.925 780 37.982 29.099 120.034 0.73576 -0.42538 
5.95 780 33.895 28.743 120.27 0.72829 -0.42507 
5.975 780 30.026 28.948 120.069 0.7331 -0.42442 
6 780 27.345 28.749 119.476 0.73421 -0.41499 
6.025 780 23.878 28.731 120.725 0.7247 -0.43072 
6.05 780 21.701 28.589 119.981 0.72791 -0.41994 
6.075 780 19.506 29.085 119.991 0.73586 -0.42469 
6.1 780 17.654 28.357 119.879 0.72483 -0.41645 
6.125 780 15.816 28.356 120.375 0.72119 -0.4227 
6.15 780 14.395 28.648 120.107 0.72795 -0.4221 
6.175 780 13.112 28.32 120.113 0.72251 -0.41905 
6.2 780 11.871 28.676 120.466 0.72575 -0.42691 
6.225 780 11.025 27.946 119.662 0.71948 -0.40976 
6.25 780 10 28.073 119.404 0.72348 -0.40772 
6.275 780 9.1 28.893 119.867 0.7337 -0.42133 
6.3 780 8.354 29.06 120.598 0.73091 -0.43223 
6.325 780 7.4 28.51 120.052 0.72609 -0.42009 
6.35 780 6.719 28.586 120.547 0.72367 -0.42708 
6.375 780 6.061 28.74 120.538 0.72624 -0.42843 
6.4 780 5.45 29.217 121.836 0.72385 -0.430823 
6.425 780 4.872 28.716 120.846 0.72355 -0.43211 
6.45 780 4.275 29.81 119.907 0.74781 -0.43014 
6.475 780 3.795 29.867 120.488 0.74427 -0.4382 
6.5 780 3.347 30.59 120.638 0.75383 -0.44649 

# MINIMA:
0.600 375.0 3.347 27.946 119.027 0.21529 -0.96936

# MAXIMA:
6.500 4000.5 79.437 41.605 167.478 0.75383 -0.40772

# PEAKS:

# END SPECTRUM


# SPECTRUM:
2

# START TIME:
11:45:35

# END TIME:
11:56:18

# THETA ANGLE:
0.00 ø

# INCIDENCE ANGLE:
60.00 ø

# ACCUMULATION NUMBER:
1

# ELLIPSOMETRIC CONFIGURATION:
0.00 ø :Modulator
+45.00 øAnalyser

# INTEGRATION TIME:
500 ms

# FIRST POINT:
0.6000 eV

# LAST POINT:
6.5000 eV

# INCREMENT:
0.0250 eV

# NUMBER OF POINTS:
237

# DATA:
eV Hv S0 Psi Delta Is Ic
0.6 3898.9 40.606 40.594 163.952 0.27318 -0.94969 
0.625 3898.9 61.082 40.391 163.543 0.27964 -0.94665 
0.65 3898.9 70.193 40.226 163.127 0.28624 -0.94369 
0.675 3898.9 75.677 40.066 162.601 0.2946 -0.94013 
0.7 3200.4 80.6 39.969 162.174 0.30141 -0.93735 
0.725 2501.9 77.811 39.839 161.758 0.30797 -0.93437 
0.75 2305.1 78.064 39.752 161.246 0.31613 -0.93106 
0.775 1803.4 78.24 39.654 160.807 0.32304 -0.92802 
0.8 1104.9 76.577 39.647 160.338 0.33062 -0.9253 
0.825 1403.4 71.668 39.305 159.883 0.33717 -0.9205 
0.85 1403.4 73.185 39.3 159.484 0.34355 -0.9181 
0.875 1003.3 80.001 39.265 159.01 0.35105 -0.915 
0.9 1003.3 61.558 39.18 158.619 0.35706 -0.91203 
0.925 1104.9 62.428 39.1 158.163 0.3641 -0.90863 
0.95 1206.5 72.967 38.969 157.741 0.37043 -0.90505 
0.975 806.5 64.719 38.916 157.261 0.37785 -0.90155 
1 1104.9 67.003 38.699 156.809 0.3843 -0.89706 
1.025 1104.9 74.219 38.7 156.434 0.39017 -0.89453 
1.05 704.9 71.092 38.507 155.923 0.39753 -0.88965 
1.075 1104.9 78.805 38.497 155.542 0.4034 -0.88692 
1.1 1003.3 70.891 38.376 155.116 0.40959 -0.88302 
1.125 1003.3 75.166 38.333 154.735 0.41529 -0.87997 
1.15 901.7 73.358 38.077 154.232 0.4221 -0.87439 
1.175 901.7 80.209 38.072 153.831 0.42818 -0.87139 
1.2 901.7 64.147 37.832 153.42 0.43351 -0.86647 
1.225 704.9 79.293 37.744 152.983 0.43976 -0.86245 
1.25 425.5 62.013 37.671 152.644 0.44456 -0.85926 
1.275 723.9 66.979 37.735 152.238 0.45089 -0.85659 
1.3 723.9 74.567 37.534 151.82 0.45629 -0.8517 
1.325 825.5 63.306 37.46 151.454 0.4614 -0.84819 
1.35 527.1 69.47 37.171 151.08 0.46563 -0.84281 
1.375 927.1 75.531 37.152 150.699 0.47115 -0.83954 
1.4 628.7 65.642 37.157 150.38 0.47583 -0.83695 
1.425 1428.8 70.489 36.803 149.939 0.48055 -0.83031 
1.45 2330.5 60.958 37.228 149.613 0.48733 -0.83108 
1.475 780 0 0 0 0.491848 -0.824005 
1.5 503 61.783 36.283 148.723 0.49533 -0.8154 
1.525 608 73.141 36.155 148.415 0.499 -0.81158 
1.55 553 73.334 36.098 148.143 0.50252 -0.80869 
1.575 590 67.22 36.01 147.716 0.50804 -0.80412 
1.6 590 78.89 35.934 147.513 0.51043 -0.80162 
1.625 540 72.453 35.718 147.1 0.51491 -0.79594 
1.65 540 67.868 35.55 146.758 0.51862 -0.79127 
1.675 528 69.331 35.513 146.405 0.52326 -0.78771 
1.7 517 69.465 35.396 146.066 0.52716 -0.7835 
1.725 507 71.199 35.251 145.831 0.52943 -0.77993 
1.75 496 69.116 35.167 145.49 0.5335 -0.77596 
1.775 486 70.228 35.014 145.185 0.53659 -0.77163 
1.8 470 69.775 34.916 144.848 0.54045 -0.7675 
1.825 470 76.638 34.823 144.565 0.54358 -0.7639 
1.85 457 69.756 34.716 144.265 0.54681 -0.75998 
1.875 457 76.558 34.612 143.994 0.54964 -0.75635 
1.9 444 71.386 34.431 143.759 0.55141 -0.75227 
1.925 444 78.794 34.384 143.45 0.5551 -0.74881 
1.95 431 69.898 34.202 143.174 0.55731 -0.74426 
1.975 431 77.72 34.122 142.892 0.56034 -0.7407 
2 420 69.601 34.044 142.621 0.56323 -0.73723 
2.025 420 72.399 33.921 142.357 0.56563 -0.73335 
2.05 420 72.463 33.853 142.053 0.56897 -0.72964 
2.075 408 71.274 33.637 141.81 0.57028 -0.72495 
2.1 408 75.782 33.614 141.505 0.57393 -0.72166 
2.125 401 70.205 33.468 141.209 0.57641 -0.71714 
2.15 401 73.221 33.399 140.949 0.57905 -0.71378 
2.175 401 76.299 33.31 140.689 0.5815 -0.71019 
2.2 401 79.312 33.209 140.354 0.58475 -0.7057 
2.225 391 68.682 33.108 140.031 0.58782 -0.70131 
2.25 391 71.249 32.97 139.741 0.5901 -0.69683 
2.275 391 73.079 32.898 139.401 0.59356 -0.69254 
2.3 391 74.667 32.686 139.087 0.59534 -0.68696 
2.325 391 77.019 32.559 138.781 0.59778 -0.68237 
2.35 391 78.83 32.392 138.487 0.59963 -0.67745 
2.375 383 69.123 32.194 138.138 0.60177 -0.67158 
2.4 383 70.669 32.017 137.902 0.60272 -0.6671 
2.425 383 74.102 31.747 137.699 0.60228 -0.66188 
2.45 373 70.077 31.564 137.542 0.60217 -0.65811 
2.475 373 70.385 31.228 137.543 0.59852 -0.65416 
2.5 401 66.767 30.786 137.543 0.59364 -0.64882 
2.525 401 67.072 30.592 137.729 0.58934 -0.64834 
2.55 401 66.576 30.457 137.889 0.586 -0.64829 
2.575 401 70.701 30.391 138.067 0.58323 -0.64927 
2.6 401 66.822 30.304 138.264 0.58002 -0.65017 
2.625 393 69.105 30.279 138.352 0.57873 -0.65074 
2.65 393 71.163 30.257 138.448 0.57739 -0.65143 
2.675 393 62.676 30.243 138.443 0.57728 -0.65119 
2.7 402 68.361 30.203 138.466 0.57656 -0.65091 
2.725 402 64.497 30.2 138.491 0.57624 -0.65112 
2.75 402 67.914 30.173 138.457 0.57632 -0.65043 
2.775 402 59.249 30.15 138.372 0.57702 -0.64928 
2.8 411 69.208 30.147 138.328 0.57749 -0.6488 
2.825 411 68.571 30.127 138.2 0.57871 -0.64725 
2.85 411 65.816 30.107 138.103 0.57957 -0.64602 
2.875 411 64.312 30.069 138.014 0.58012 -0.64461 
2.9 411 63.037 30.033 137.873 0.5813 -0.64272 
2.925 411 62.104 29.956 137.787 0.58136 -0.64085 
2.95 411 62.056 29.927 137.672 0.5823 -0.63932 
2.975 411 59.088 29.844 137.612 0.58198 -0.63762 
3 420 67.587 29.819 137.489 0.58305 -0.63604 
3.025 420 65.119 29.774 137.381 0.5837 -0.63436 
3.05 420 62.382 29.726 137.286 0.58419 -0.63277 
3.075 420 60.184 29.674 137.176 0.58477 -0.63096 
3.1 420 76.42 29.622 137.115 0.58482 -0.62967 
3.125 420 74.343 29.573 137.043 0.58501 -0.62828 
3.15 420 70.715 29.423 136.982 0.58384 -0.6257 
3.175 420 66.945 29.362 136.884 0.58415 -0.62389 
3.2 420 63.601 29.244 136.877 0.58276 -0.62225 
3.225 420 60.665 29.179 136.854 0.5822 -0.62114 
3.25 430 69.292 29.075 136.942 0.57995 -0.62065 
3.275 430 65.242 28.967 137.056 0.57734 -0.62034 
3.3 430 60.349 28.844 137.2 0.57423 -0.62011 
3.325 443 67.919 28.744 137.479 0.56994 -0.62152 
3.35 443 64.054 28.746 137.848 0.56595 -0.6252 
3.375 443 63.955 28.705 138.314 0.56033 -0.62922 
3.4 443 63.919 28.723 138.623 0.55715 -0.63247 
3.425 443 62.542 28.77 138.989 0.55368 -0.63669 
3.45 443 60.532 28.883 139.25 0.55215 -0.6408 
3.475 454 70.023 29.017 139.509 0.55086 -0.64519 
3.5 454 66.989 29.174 139.69 0.55069 -0.64913 
3.525 454 64.39 29.265 139.791 0.55062 -0.65138 
3.55 454 61.982 29.376 140.01 0.54943 -0.65501 
3.575 463 69.207 29.548 140.12 0.55016 -0.65845 
3.6 463 67.496 29.661 140.27 0.54972 -0.66143 
3.625 463 65.817 29.845 140.407 0.55021 -0.66527 
3.65 463 64.61 29.992 140.442 0.55144 -0.66759 
3.675 463 63.647 30.19 140.548 0.5524 -0.67126 
3.7 463 63.347 30.408 140.615 0.55397 -0.67479 
3.725 463 62.277 30.664 140.548 0.55752 -0.67748 
3.75 463 61.226 30.869 140.543 0.55974 -0.68006 
3.775 463 59.787 31.088 140.421 0.56349 -0.68164 
3.8 475 69.244 31.372 140.297 0.56788 -0.68394 
3.825 475 66.046 31.611 140.16 0.57194 -0.68549 
3.85 475 62.555 31.875 139.951 0.57709 -0.68655 
3.875 485 67.456 32.162 139.746 0.58237 -0.68784 
3.9 485 62.486 32.396 139.373 0.58912 -0.68669 
3.925 496 68.901 32.72 139.06 0.59598 -0.68706 
3.95 496 64.978 32.941 138.617 0.60338 -0.6848 
3.975 496 61.517 33.131 138.152 0.61072 -0.68189 
4 508 69.723 33.461 137.848 0.61739 -0.68203 
4.025 508 66.802 33.606 137.309 0.62512 -0.67765 
4.05 508 63.467 33.983 136.733 0.63535 -0.67498 
4.075 508 61.218 34.109 136.232 0.64235 -0.67059 
4.1 518 67.679 34.455 135.549 0.65339 -0.66603 
4.125 518 64.548 34.603 134.883 0.66239 -0.6597 
4.15 518 62.361 34.882 134.189 0.67278 -0.65401 
4.175 518 61.21 35.022 133.45 0.68239 -0.64643 
4.2 518 60.649 35.27 132.608 0.69395 -0.63831 
4.225 518 60.421 35.361 131.676 0.70504 -0.62763 
4.25 518 59.854 35.484 130.592 0.71785 -0.61509 
4.275 529 68.94 35.686 129.568 0.73049 -0.60362 
4.3 546 67.327 35.631 128.072 0.74551 -0.58396 
4.325 546 73.826 35.631 126.813 0.75816 -0.56745 
