## SPECTRUM TYPE:
Spectroscopic

## DATE:
1/30/2012

## COMMENTS:

## NUMBER OF SPECTRUM:
5

## ELLIPSOMETRIC CONFIGURATION:
-45.00 øModulator
-45.00 øAnalyser

## UNIT:
eV


# SPECTRUM:
1

# START TIME:
12:30:48

# END TIME:
12:42:10

# THETA ANGLE:
0.00 ø

# INCIDENCE ANGLE:
55.00 ø

# ACCUMULATION NUMBER:
1

# ELLIPSOMETRIC CONFIGURATION:
-45.00 øModulator
-45.00 øAnalyser

# INTEGRATION TIME:
500 ms

# FIRST POINT:
0.6000 eV

# LAST POINT:
6.5000 eV

# INCREMENT:
0.0250 eV

# NUMBER OF POINTS:
237

# DATA:
eV Hv S0 Psi Delta Is Ic
0.6 1301.8 60.197 41.535 12.468 -0.21431 -0.12066 
0.625 1200.2 71.996 41.331 12.742 -0.21876 -0.12772 
0.65 1098.6 68.001 41.336 13.193 -0.22636 -0.12755 
0.675 1098.6 65.172 40.939 13.421 -0.22978 -0.14128 
0.7 997 63.169 41.058 13.93 -0.23846 -0.13717 
0.725 997 73.627 40.966 14.304 -0.24462 -0.14034 
0.75 997 75.344 40.817 14.547 -0.2485 -0.1455 
0.775 895.4 71.131 40.911 14.974 -0.25575 -0.14226 
0.8 596.9 67.173 40.696 15.287 -0.26068 -0.14967 
0.825 793.8 64.505 40.488 15.613 -0.26581 -0.15685 
0.85 793.8 60.196 40.486 15.909 -0.27072 -0.1569 
0.875 596.9 65.659 40.557 16.376 -0.27855 -0.15447 
0.9 698.5 69.693 40.411 16.629 -0.28251 -0.15951 
0.925 800.1 68.149 40.295 16.938 -0.28742 -0.16349 
0.95 901.7 77.855 40.031 17.31 -0.29308 -0.17258 
0.975 603.3 66.81 40.085 17.704 -0.29964 -0.17073 
1 901.7 76.63 40.029 17.996 -0.30432 -0.17264 
1.025 901.7 79.903 39.894 18.269 -0.30852 -0.17728 
1.05 527.1 62.516 39.742 18.653 -0.31446 -0.18253 
1.075 825.5 63.086 39.677 19.009 -0.32012 -0.18473 
1.1 825.5 70.036 39.674 19.361 -0.32581 -0.18483 
1.125 825.5 70.715 39.521 19.769 -0.33206 -0.1901 
1.15 723.9 64.356 39.368 20.018 -0.33572 -0.19533 
1.175 723.9 68.439 39.338 20.394 -0.34169 -0.19635 
1.2 825.5 71.286 39.255 20.687 -0.34618 -0.19921 
1.225 628.7 81.743 39.134 20.939 -0.34991 -0.20332 
1.25 431.8 83.663 39.087 21.325 -0.35594 -0.20495 
1.275 704.9 81.029 38.958 21.616 -0.36022 -0.20934 
1.3 603.3 61.841 38.801 21.97 -0.3654 -0.21469 
1.325 800.1 70.025 38.755 22.243 -0.36958 -0.21628 
1.35 501.7 72.936 38.61 22.495 -0.37312 -0.22122 
1.375 901.7 78.284 38.521 22.869 -0.37872 -0.22422 
1.4 603.3 66.38 38.461 23.163 -0.38315 -0.22628 
1.425 1403.4 69.702 38.232 23.478 -0.38733 -0.23407 
1.45 2305.1 61.079 38.156 23.795 -0.392 -0.23663 
1.475 643 71.818 38.149 23.978 -0.39482 -0.23689 
1.5 485 63.496 37.968 24.222 -0.39798 -0.24301 
1.525 589 74.604 37.84 24.428 -0.4007 -0.24734 
1.55 537 72.722 37.779 24.724 -0.40504 -0.2494 
1.575 573 67.285 37.698 25.039 -0.40956 -0.25215 
1.6 573 76.886 37.576 25.289 -0.41292 -0.25624 
1.625 527 72.774 37.432 25.477 -0.41522 -0.26111 
1.65 527 67.463 37.356 25.73 -0.41877 -0.26365 
1.675 516 68.674 37.284 25.984 -0.42232 -0.26611 
1.7 507 68.98 37.106 26.262 -0.42578 -0.27209 
1.725 496 68.627 37.039 26.472 -0.42866 -0.27432 
1.75 496 78.183 36.904 26.716 -0.43174 -0.27884 
1.775 480 70.522 36.811 26.965 -0.43504 -0.28198 
1.8 464 70.351 36.74 27.16 -0.43764 -0.28436 
1.825 464 76.59 36.633 27.388 -0.44053 -0.28792 
1.85 452 70.035 36.495 27.591 -0.44289 -0.29253 
1.875 452 76.745 36.38 27.834 -0.44593 -0.29636 
1.9 438 69.743 36.295 28.045 -0.44862 -0.2992 
1.925 438 76.421 36.181 28.248 -0.45103 -0.303 
1.95 428 70.955 36.09 28.426 -0.45319 -0.30601 
1.975 428 78.619 36.005 28.592 -0.45518 -0.30885 
2 417 70.161 35.881 28.815 -0.45778 -0.31297 
2.025 417 72.729 35.767 29.016 -0.46007 -0.31675 
2.05 417 72.419 35.72 29.189 -0.46232 -0.31831 
2.075 405 70.463 35.594 29.444 -0.46531 -0.32248 
2.1 405 74.524 35.497 29.621 -0.46731 -0.32567 
2.125 405 78.058 35.401 29.875 -0.47041 -0.32885 
2.15 397 70.049 35.319 30.011 -0.47187 -0.33154 
2.175 397 73.055 35.21 30.214 -0.47414 -0.33511 
2.2 397 75.475 35.115 30.474 -0.47725 -0.33825 
2.225 397 78.287 34.987 30.71 -0.47982 -0.34244 
2.25 389 69.041 34.889 30.929 -0.48229 -0.34566 
2.275 389 70.991 34.781 31.159 -0.48484 -0.3492 
2.3 389 71.905 34.632 31.446 -0.4879 -0.35407 
2.325 389 73.651 34.505 31.599 -0.4892 -0.35822 
2.35 389 74.941 34.363 31.863 -0.49192 -0.36282 
2.375 389 76.162 34.186 32.05 -0.49329 -0.36859 
2.4 389 77.492 34.012 32.219 -0.49442 -0.37423 
2.425 382 70.556 33.806 32.276 -0.49375 -0.38088 
2.45 375 69.725 33.607 32.385 -0.4938 -0.3873 
2.475 375 69.357 33.411 32.338 -0.49174 -0.39358 
2.5 391 66.512 33.291 32.129 -0.48802 -0.39743 
2.525 391 66.679 33.126 31.935 -0.48416 -0.40272 
2.55 391 65.641 33.023 31.776 -0.48124 -0.40599 
2.575 391 69.722 32.961 31.604 -0.47845 -0.40799 
2.6 391 65.159 32.911 31.412 -0.47547 -0.40958 
2.625 391 77.81 32.846 31.36 -0.47429 -0.41163 
2.65 384 70.621 32.846 31.294 -0.47338 -0.41163 
2.675 384 61.624 32.85 31.248 -0.47279 -0.41151 
2.7 395 69.736 32.831 31.247 -0.47262 -0.41213 
2.725 395 65.549 32.813 31.217 -0.47209 -0.41269 
2.75 395 68.794 32.781 31.282 -0.47273 -0.41372 
2.775 395 60.185 32.758 31.308 -0.47291 -0.41443 
2.8 403 68.201 32.755 31.335 -0.47325 -0.41455 
2.825 403 67.583 32.711 31.367 -0.47336 -0.41592 
2.85 403 64.275 32.714 31.446 -0.47445 -0.41585 
2.875 403 62.444 32.666 31.531 -0.47523 -0.41737 
2.9 403 61.111 32.622 31.589 -0.47568 -0.41876 
2.925 403 60.069 32.601 31.667 -0.47658 -0.41942 
2.95 403 59.627 32.533 31.735 -0.47697 -0.42156 
2.975 414 68.383 32.515 31.796 -0.47764 -0.42216 
3 414 66.05 32.458 31.819 -0.47751 -0.42396 
3.025 414 63.603 32.411 31.879 -0.47796 -0.42542 
3.05 414 60.789 32.359 31.928 -0.47819 -0.42707 
3.075 423 68.404 32.318 32.036 -0.47932 -0.42836 
3.1 412 71.09 32.244 32.025 -0.47858 -0.43071 
3.125 412 68.859 32.198 32.074 -0.47887 -0.43216 
3.15 412 64.751 32.146 32.071 -0.47841 -0.43377 
3.175 412 61.089 32.071 32.066 -0.47774 -0.43615 
3.2 421 67.764 32.005 32.061 -0.47715 -0.4382 
3.225 421 64.444 31.94 31.965 -0.47533 -0.44025 
3.25 421 61.337 31.843 31.898 -0.47365 -0.44329 
3.275 431 68.684 31.778 31.736 -0.47097 -0.44534 
3.3 431 63.177 31.707 31.526 -0.4676 -0.44753 
3.325 442 69.227 31.646 31.279 -0.46381 -0.44945 
3.35 442 65.014 31.618 30.908 -0.45863 -0.45031 
3.375 442 64.491 31.648 30.584 -0.45453 -0.44938 
3.4 442 64.032 31.764 30.291 -0.45151 -0.44575 
3.425 442 62.391 31.884 30.026 -0.44887 -0.44199 
3.45 442 60.533 32.022 29.791 -0.44672 -0.43769 
3.475 452 68.71 32.149 29.624 -0.44541 -0.43368 
3.5 452 65.67 32.312 29.526 -0.44527 -0.42855 
3.525 452 63.026 32.46 29.468 -0.44556 -0.42388 
3.55 452 60.183 32.574 29.425 -0.44578 -0.42027 
3.575 462 68.531 32.752 29.402 -0.44675 -0.41462 
3.6 462 66.334 32.891 29.344 -0.44692 -0.41021 
3.625 462 64.759 33.092 29.359 -0.44854 -0.4038 
3.65 462 63.2 33.24 29.435 -0.4506 -0.39907 
3.675 462 62.181 33.463 29.412 -0.4518 -0.39193 
3.7 462 61.302 33.645 29.578 -0.45534 -0.38608 
3.725 462 60.47 33.877 29.704 -0.45863 -0.37858 
3.75 471 68.269 34.105 29.859 -0.4623 -0.37119 
3.775 471 66.609 34.32 30.028 -0.46606 -0.36423 
3.8 471 63.604 34.551 30.245 -0.47056 -0.35672 
3.825 471 60.795 34.754 30.54 -0.47598 -0.35008 
3.85 483 68.73 34.93 30.938 -0.48267 -0.34431 
3.875 483 63.897 35.148 31.225 -0.48805 -0.33715 
3.9 494 70.005 35.363 31.687 -0.49583 -0.33009 
3.925 494 65.398 35.581 32.095 -0.50286 -0.32291 
3.95 494 62.108 35.774 32.628 -0.51147 -0.31651 
3.975 505 69.246 35.911 33.087 -0.51867 -0.31197 
4 505 65.4 36.1 33.644 -0.5275 -0.30569 
4.025 505 62.308 36.26 34.215 -0.53633 -0.30037 
4.05 505 59.822 36.352 34.836 -0.5454 -0.29731 
4.075 517 68.27 36.525 35.376 -0.55379 -0.29155 
4.1 517 65.094 36.639 35.999 -0.56291 -0.28772 
4.125 517 62.214 36.766 36.703 -0.57315 -0.28348 
4.15 517 60.01 36.812 37.317 -0.58164 -0.28193 
4.175 517 58.698 36.869 38.127 -0.59271 -0.28002 
4.2 529 68.75 36.956 38.836 -0.60253 -0.27711 
4.225 529 67.725 36.936 39.727 -0.61397 -0.27778 
4.25 529 66.709 36.97 40.502 -0.62413 -0.27664 
4.275 529 65.072 36.885 41.435 -0.63539 -0.27951 
4.3 529 61.736 36.943 42.364 -0.64736 -0.27756 
4.325 529 65.831 36.706 42.979 -0.65336 -0.2855 
4.35 529 69.655 36.542 43.736 -0.66142 -0.29096 
4.375 529 72.854 36.371 44.304 -0.66701 -0.29668 
4.4 529 75.222 36.202 44.768 -0.67129 -0.3023 
4.425 529 77.16 36.016 45.077 -0.67353 -0.30848 
4.45 529 78.573 35.87 45.489 -0.67721 -0.31333 
4.475 519 68.646 35.796 45.892 -0.6813 -0.31578 
4.5 519 68.903 35.6 46.192 -0.68317 -0.32225 
4.525 519 69.393 35.492 46.503 -0.68583 -0.32583 
4.55 519 68.339 35.401 46.869 -0.68921 -0.32882 
4.575 519 67.982 35.227 47.22 -0.69167 -0.33456 
4.6 519 66.047 35.206 47.58 -0.69549 -0.33525 
4.625 519 64.388 35.094 47.784 -0.69678 -0.33893 
4.65 519 62.772 34.987 48.143 -0.69979 -0.34243 
4.675 530 71.944 34.829 48.59 -0.70321 -0.34764 
4.7 530 69.079 34.772 48.919 -0.70625 -0.34949 
4.725 530 65.978 34.692 49.09 -0.70734 -0.35209 
4.75 530 64.385 34.606 49.401 -0.70986 -0.3549 
4.775 530 61.49 34.469 49.752 -0.71226 -0.35939 
4.8 544 71.513 34.323 50.139 -0.71491 -0.36413 
4.825 544 68.001 34.206 50.419 -0.71666 -0.36793 
4.85 544 66.092 34.176 50.654 -0.71879 -0.3689 
4.875 544 62.41 34.009 50.968 -0.72032 -0.37431 
4.9 557 71.66 33.96 51.339 -0.72359 -0.37591 
4.925 557 68.961 33.828 51.669 -0.72554 -0.38018 
4.95 557 65.861 33.636 52.027 -0.72708 -0.38637 
4.975 557 63.116 33.659 52.194 -0.72898 -0.38562 
5 570 72.321 33.484 52.55 -0.73059 -0.39126 
5.025 570 68.368 33.42 52.809 -0.73243 -0.39329 
5.05 570 64.492 33.248 53.067 -0.73302 -0.39881 
5.075 570 60.632 33.113 53.213 -0.73291 -0.40312 
5.1 584 68.651 33.098 53.4 -0.73451 -0.40362 
5.125 584 64.238 32.892 53.705 -0.73505 -0.41019 
5.15 584 60.405 32.767 53.992 -0.7363 -0.41415 
5.175 599 68.015 32.796 54.232 -0.73888 -0.41322 
5.2 599 63.431 32.635 54.414 -0.73866 -0.41834 
5.225 612 70.06 32.564 54.732 -0.74074 -0.42058 
5.25 612 65.665 32.361 54.96 -0.74035 -0.427 
5.275 612 60.862 32.292 55.273 -0.74233 -0.42918 
5.3 625 66.285 32.234 55.494 -0.74359 -0.43102 
5.325 625 62.578 32.021 55.72 -0.74294 -0.43772 
5.35 640 69.998 31.959 55.869 -0.74347 -0.43965 
5.375 640 65.245 31.847 56.052 -0.74364 -0.44316 
5.4 640 61.224 31.789 56.09 -0.74322 -0.44499 
5.425 658 69.929 31.659 56.269 -0.74309 -0.44905 
5.45 658 65.39 31.503 56.63 -0.74416 -0.45389 
5.475 658 60.728 31.356 56.764 -0.74333 -0.45847 
5.5 673 66.86 31.123 57.446 -0.74592 -0.46568 
5.525 673 62.61 31.222 57.172 -0.74498 -0.46261 
5.55 686 66.011 31.061 57.443 -0.74504 -0.46759 
5.575 686 61.161 30.856 57.533 -0.74294 -0.47391 
5.6 686 56.452 30.74 57.937 -0.74463 -0.47746 
5.625 709 66.093 30.613 57.643 -0.74043 -0.48135 
5.65 709 60.674 30.525 58.081 -0.74273 -0.48405 
5.675 728 67.825 30.437 57.936 -0.74029 -0.48674 
5.7 728 61.359 30.189 58.115 -0.73813 -0.49428 
5.725 744 66.325 30.077 58.198 -0.73715 -0.49766 
5.75 744 60.314 29.971 58.317 -0.73653 -0.50086 
5.775 766 67.395 29.927 58.59 -0.73804 -0.50219 
5.8 766 60.511 29.544 58.765 -0.7336 -0.51371 
5.825 780 62.555 29.647 58.497 -0.73307 -0.51064 
5.85 780 56.174 29.734 58.256 -0.7325 -0.50801 
5.875 780 50.487 29.324 57.68 -0.72169 -0.52029 
5.9 780 44.885 29.41 58.148 -0.72671 -0.51774 
5.925 780 40.451 29.098 59.376 -0.73132 -0.52703 
5.95 780 35.266 28.937 59.607 -0.73049 -0.5318 
5.975 780 31.984 29.313 57.936 -0.72354 -0.52063 
6 780 28.651 28.924 59.02 -0.72586 -0.53218 
6.025 780 25.606 28.723 58.557 -0.71911 -0.53811 
6.05 780 22.896 28.465 59.886 -0.7249 -0.54566 
6.075 780 20.639 28.961 58.268 -0.72067 -0.53106 
6.1 780 18.639 28.433 58.574 -0.71456 -0.54661 
6.125 780 16.711 28.745 58.235 -0.71698 -0.53744 
6.15 780 15.225 28.214 57.469 -0.70247 -0.55297 
6.175 780 13.847 28.423 57.621 -0.70703 -0.5469 
6.2 780 12.568 28.395 58.848 -0.71602 -0.54771 
6.225 780 11.49 28.657 57.521 -0.71 -0.54003 
6.25 780 10.625 28.247 58.601 -0.71173 -0.55201 
6.275 780 9.569 27.897 58.873 -0.70795 -0.56218 
6.3 780 8.688 28.101 60.338 -0.72212 -0.55625 
6.325 780 7.852 28.218 58.285 -0.70883 -0.55288 
6.35 780 7.057 28.478 58.939 -0.71806 -0.54529 
6.375 780 6.298 28.423 55.482 -0.68982 -0.54688 
6.4 780 5.682 29.055 56.098 -0.70472 -0.52829 
6.425 780 5.025 29.587 54.789 -0.70161 -0.51243 
6.45 780 4.499 29.141 56.604 -0.71019 -0.52575 
6.475 780 3.998 29.106 54.915 -0.69556 -0.52678 
6.5 780 3.539 29.95 57.163 -0.72692 -0.5015 

# MINIMA:
0.600 375.0 3.539 27.897 12.468 -0.74592 -0.56218

# MAXIMA:
6.500 2305.1 83.663 41.535 60.338 -0.21431 -0.12066

# PEAKS:

# END SPECTRUM


# SPECTRUM:
2

# START TIME:
12:42:53

# END TIME:
12:53:15

# THETA ANGLE:
0.00 ø

# INCIDENCE ANGLE:
60.00 ø

# ACCUMULATION NUMBER:
1

# ELLIPSOMETRIC CONFIGURATION:
-45.00 øModulator
-45.00 øAnalyser

# INTEGRATION TIME:
500 ms

# FIRST POINT:
0.6000 eV

# LAST POINT:
6.5000 eV

# INCREMENT:
0.0250 eV

# NUMBER OF POINTS:
237

# DATA:
eV Hv S0 Psi Delta Is Ic
0.6 1301.8 65.211 40.75 16.094 -0.27416 -0.14781 
0.625 1200.2 75.176 40.331 16.391 -0.27845 -0.16226 
0.65 1098.6 69.453 39.993 16.782 -0.28433 -0.1739 
0.675 1098.6 66.766 40.22 17.323 -0.29363 -0.16607 
0.7 997 63.694 40.035 17.834 -0.30166 -0.17244 
0.725 997 72.876 39.87 18.223 -0.30772 -0.17812 
0.75 997 73.745 39.859 18.719 -0.31577 -0.17849 
0.775 895.4 69.017 39.652 19.101 -0.32155 -0.18561 
0.8 596.9 65.402 39.513 19.571 -0.32885 -0.19038 
0.825 895.4 81.615 39.443 20.01 -0.33577 -0.19277 
0.85 895.4 76.545 39.289 20.353 -0.34091 -0.19805 
0.875 596.9 63.171 39.302 20.884 -0.34945 -0.19758 
0.9 698.5 67.092 39.086 21.284 -0.35528 -0.20497 
0.925 800.1 66.259 38.936 21.659 -0.36085 -0.2101 
0.95 901.7 76.913 38.863 22.122 -0.36797 -0.21258 
0.975 603.3 66.567 38.8 22.59 -0.37517 -0.21474 
1 901.7 76.74 38.692 22.979 -0.38097 -0.2184 
1.025 806.5 63.37 38.546 23.465 -0.38812 -0.22338 
1.05 527.1 62.742 38.647 23.92 -0.39554 -0.21994 
1.075 825.5 64.586 38.337 24.315 -0.40067 -0.23049 
1.1 825.5 72.227 38.249 24.728 -0.40674 -0.23347 
1.125 825.5 72.992 38.117 25.191 -0.41341 -0.23794 
1.15 723.9 66.299 38.098 25.684 -0.42089 -0.23859 
1.175 723.9 70.686 37.927 26.025 -0.42546 -0.24438 
1.2 825.5 73.738 37.812 26.532 -0.43272 -0.24828 
1.225 552.5 62.467 37.692 26.928 -0.43822 -0.25234 
1.25 387.4 63.744 37.583 27.259 -0.44275 -0.25601 
1.275 685.8 78.502 37.437 27.74 -0.44933 -0.26095 
1.3 590.6 61.13 37.26 28.094 -0.45383 -0.2669 
1.325 787.4 71.093 37.241 28.441 -0.45889 -0.26755 
1.35 489 72.508 37.095 28.866 -0.46451 -0.27243 
1.375 889 80.917 36.983 29.168 -0.46841 -0.27622 
1.4 590.6 66.659 36.834 29.594 -0.47392 -0.28121 
1.425 1289.1 62.417 36.79 30 -0.47961 -0.28269 
1.45 2190.8 62.806 36.625 30.411 -0.48472 -0.2882 
1.475 780 0 45 0 -0.48923 -0.292442 
1.5 481 65.016 36.375 31.074 -0.49293 -0.29653 
1.525 580 73.222 36.224 31.32 -0.49561 -0.30158 
1.55 513 57.59 36.15 31.704 -0.50066 -0.30404 
1.575 562 64.369 36.017 32.05 -0.50478 -0.30847 
1.6 562 73.497 35.882 32.434 -0.50939 -0.31292 
1.625 515 67.138 35.785 32.719 -0.5128 -0.31614 
1.65 515 61.592 35.692 32.989 -0.51599 -0.31923 
1.675 515 73.705 35.515 33.386 -0.52039 -0.32506 
1.7 503 71.231 35.377 33.757 -0.52462 -0.32963 
1.725 492 70.419 35.307 34.038 -0.52801 -0.33194 
1.75 483 69.663 35.125 34.349 -0.53105 -0.33791 
1.775 473 68.948 35.023 34.591 -0.53363 -0.34127 
1.8 460 71.085 34.917 34.923 -0.53738 -0.34475 
1.825 460 77.177 34.77 35.203 -0.54011 -0.34954 
1.85 447 69.111 34.674 35.56 -0.54418 -0.3527 
1.875 447 75.493 34.518 35.868 -0.54714 -0.35779 
1.9 434 69.498 34.424 36.084 -0.54929 -0.36085 
1.925 434 76.016 34.291 36.398 -0.55241 -0.36518 
1.95 423 69.349 34.187 36.595 -0.55419 -0.36854 
1.975 423 76.417 34.064 36.912 -0.55735 -0.37255 
2 414 70.546 33.964 37.168 -0.55988 -0.37577 
2.025 414 73.847 33.846 37.474 -0.56287 -0.37959 
2.05 414 72.879 33.735 37.749 -0.56548 -0.38317 
2.075 401 69.981 33.647 38.008 -0.56805 -0.386 
2.1 401 74.223 33.523 38.349 -0.57132 -0.38999 
2.125 401 77.584 33.422 38.571 -0.57326 -0.39324 
2.15 393 69.705 33.317 38.847 -0.5758 -0.3966 
2.175 393 72.776 33.185 39.078 -0.57752 -0.40084 
2.2 393 74.819 33.073 39.474 -0.58143 -0.4044 
2.225 393 77.691 32.952 39.766 -0.58392 -0.40826 
2.25 393 80.331 32.825 40.134 -0.58723 -0.41232 
2.275 384 69.3 32.699 40.439 -0.58976 -0.4163 
2.3 384 70.575 32.575 40.741 -0.59222 -0.42023 
2.325 384 72.264 32.41 41.115 -0.59508 -0.42548 
2.35 384 73.682 32.235 41.37 -0.59639 -0.43098 
2.375 384 74.913 32.034 41.76 -0.59896 -0.4373 
2.4 384 76.171 31.828 41.969 -0.59928 -0.44375 
2.425 377 69.77 31.591 42.109 -0.59842 -0.45117 
2.45 377 79.408 31.344 42.255 -0.59747 -0.45884 
2.475 370 69.188 31.115 42.283 -0.5953 -0.46594 
2.5 390 66.553 30.951 42.009 -0.59037 -0.47099 
2.525 390 66.604 30.778 41.815 -0.58625 -0.47629 
2.55 390 65.478 30.625 41.629 -0.58241 -0.48099 
2.575 390 69.075 30.533 41.493 -0.57984 -0.48379 
2.6 390 65.277 30.439 41.274 -0.57626 -0.48668 
2.625 390 77.641 30.388 41.218 -0.57506 -0.48821 
2.65 383 70.279 30.375 41.124 -0.57384 -0.48861 
2.675 383 61.604 30.375 41.07 -0.57321 -0.48862 
2.7 394 69.676 30.345 41.121 -0.57346 -0.48954 
2.725 394 65.554 30.317 41.08 -0.57267 -0.49039 
2.75 394 68.264 30.293 41.175 -0.57349 -0.49112 
2.775 402 69.58 30.279 41.237 -0.57404 -0.49154 
2.8 402 68.277 30.257 41.305 -0.57458 -0.4922 
2.825 402 67.672 30.207 41.368 -0.57472 -0.49374 
2.85 402 64.444 30.185 41.48 -0.57575 -0.49439 
2.875 402 62.766 30.154 41.544 -0.57612 -0.49534 
2.9 402 61.405 30.112 41.672 -0.57709 -0.49662 
2.925 402 60.312 30.096 41.776 -0.57807 -0.49711 
2.95 402 59.939 30.025 41.867 -0.57828 -0.49924 
2.975 412 68.052 29.967 42.045 -0.57961 -0.50099 
3 412 65.873 29.909 42.113 -0.57968 -0.50276 
3.025 412 63.232 29.866 42.227 -0.58044 -0.50405 
3.05 412 60.519 29.809 42.249 -0.58002 -0.50578 
3.075 423 70.686 29.729 42.41 -0.58086 -0.50817 
3.1 408 68.559 29.689 42.507 -0.58145 -0.50938 
3.125 408 66.627 29.598 42.555 -0.58089 -0.5121 
3.15 408 62.935 29.533 42.611 -0.58073 -0.51404 
3.175 417 69.75 29.438 42.676 -0.58028 -0.51689 
3.2 417 65.706 29.36 42.703 -0.57962 -0.51921 
3.225 417 63.116 29.27 42.675 -0.57821 -0.52189 
3.25 417 59.751 29.163 42.656 -0.57667 -0.52509 
3.275 429 69.399 29.032 42.507 -0.57342 -0.52896 
3.3 429 63.892 28.919 42.387 -0.57068 -0.53233 
3.325 439 68.745 28.821 42.139 -0.56675 -0.5352 
3.35 439 64.941 28.755 41.718 -0.56131 -0.53717 
3.375 439 64.349 28.727 41.403 -0.55749 -0.53799 
3.4 439 64.018 28.769 40.973 -0.55324 -0.53675 
3.425 439 62.23 28.848 40.667 -0.55081 -0.5344 
3.45 439 60.518 28.956 40.297 -0.54795 -0.53122 
3.475 449 68.601 29.071 40.162 -0.54779 -0.52783 
3.5 449 65.685 29.174 39.879 -0.54579 -0.52476 
3.525 449 62.861 29.306 39.782 -0.54623 -0.52084 
3.55 449 60.502 29.416 39.628 -0.54574 -0.51754 
3.575 459 68.629 29.546 39.485 -0.54558 -0.51366 
3.6 459 66.799 29.698 39.361 -0.54587 -0.5091 
3.625 459 65.071 29.863 39.265 -0.54659 -0.50413 
3.65 459 63.607 30.023 39.198 -0.54758 -0.49932 
3.675 459 62.748 30.258 39.062 -0.54855 -0.49219 
3.7 459 61.547 30.465 39.096 -0.55118 -0.48587 
3.725 459 60.495 30.636 39.149 -0.55363 -0.48064 
3.75 469 69.394 30.864 39.198 -0.55661 -0.47365 
3.775 469 67.621 31.102 39.248 -0.55967 -0.46633 
3.8 469 64.566 31.376 39.316 -0.56329 -0.45785 
3.825 469 61.335 31.617 39.468 -0.56754 -0.45034 
3.85 480 68.596 31.875 39.671 -0.57254 -0.44228 
3.875 480 63.635 32.105 39.919 -0.57779 -0.43507 
3.9 490 68.632 32.35 40.309 -0.58486 -0.42737 
3.925 490 64.135 32.667 40.607 -0.59147 -0.41733 
3.95 490 60.287 32.913 40.964 -0.5981 -0.4095 
3.975 502 68.355 33.184 41.403 -0.60588 -0.40087 
4 502 64.79 33.424 41.768 -0.61246 -0.39319 
4.025 502 61.852 33.649 42.272 -0.62054 -0.38595 
4.05 514 70.73 33.842 42.887 -0.62958 -0.37971 
4.075 514 67.703 34.092 43.411 -0.638 -0.37164 
4.1 514 64.598 34.306 44.045 -0.64735 -0.36468 
4.125 514 61.662 34.543 44.692 -0.65696 -0.35696 
4.15 514 59.391 34.761 45.416 -0.66721 -0.34983 
4.175 525 67.923 34.95 46.229 -0.67813 -0.34365 
4.2 525 67.164 35.184 46.951 -0.68828 -0.33599 
4.225 525 66.606 35.364 47.844 -0.69978 -0.33006 
4.25 525 66.104 35.53 48.819 -0.71189 -0.32458 
4.275 525 64.627 35.622 49.894 -0.72423 -0.32155 
4.3 525 59.947 35.649 51.232 -0.73852 -0.32065 
