## SPECTRUM TYPE:
Spectroscopic

## DATE:
1/30/2012

## COMMENTS:

## NUMBER OF SPECTRUM:
5

## ELLIPSOMETRIC CONFIGURATION:
-45.00 øModulator
+45.00 øAnalyser

## UNIT:
eV


# SPECTRUM:
1

# START TIME:
13:26:34

# END TIME:
13:37:55

# THETA ANGLE:
0.00 ø

# INCIDENCE ANGLE:
55.00 ø

# ACCUMULATION NUMBER:
1

# ELLIPSOMETRIC CONFIGURATION:
-45.00 øModulator
+45.00 øAnalyser

# INTEGRATION TIME:
500 ms

# FIRST POINT:
0.6000 eV

# LAST POINT:
6.5000 eV

# INCREMENT:
0.0250 eV

# NUMBER OF POINTS:
237

# DATA:
eV Hv S0 Psi Delta Is Ic
0.6 1397 66.275 41.386 12.517 0.21501 -0.12582 
0.625 1200.2 67.205 41.331 12.806 0.21984 -0.12773 
0.65 1200.2 77.663 41.26 13.188 0.22621 -0.13016 
0.675 1200.2 75.09 41.089 13.58 0.23262 -0.13609 
0.7 1098.6 76.078 41.059 13.914 0.2382 -0.13714 
0.725 997 70.154 40.955 14.29 0.24438 -0.14071 
0.75 997 71.354 40.942 14.653 0.25043 -0.14117 
0.775 895.4 67.014 40.81 14.937 0.25501 -0.14572 
0.8 596.9 64.049 40.546 15.318 0.26099 -0.15486 
0.825 895.4 79.577 40.62 15.667 0.2669 -0.15228 
0.85 895.4 75.4 40.359 15.969 0.27151 -0.16131 
0.875 596.9 62.858 40.257 16.282 0.27653 -0.1648 
0.9 698.5 66.693 40.385 16.714 0.28387 -0.16041 
0.925 800.1 65.191 40.105 16.988 0.28792 -0.17005 
0.95 901.7 74.991 40.209 17.363 0.29426 -0.16645 
0.975 603.3 64.984 40.084 17.743 0.30027 -0.17076 
1 901.7 74.452 39.889 18.002 0.30415 -0.17746 
1.025 901.7 78.083 39.857 18.357 0.30987 -0.17855 
1.05 527.1 60.849 39.69 18.65 0.31432 -0.18428 
1.075 825.5 62.047 39.67 19.092 0.32145 -0.18498 
1.1 825.5 69.358 39.64 19.374 0.32595 -0.18601 
1.125 825.5 70.397 39.545 19.765 0.33205 -0.18928 
1.15 723.9 63.349 39.363 20.053 0.33627 -0.1955 
1.175 723.9 68.017 39.305 20.42 0.34202 -0.19749 
1.2 825.5 70.972 39.204 20.789 0.34768 -0.20095 
1.225 552.5 60.289 39.124 21.107 0.35256 -0.20369 
1.25 387.4 60.707 38.953 21.367 0.35626 -0.20952 
1.275 685.8 75.461 38.855 21.654 0.36054 -0.21287 
1.3 603.3 62.041 38.761 22.027 0.36618 -0.21607 
1.325 800.1 70.298 38.721 22.342 0.37104 -0.21741 
1.35 501.7 73.387 38.498 22.599 0.37442 -0.22502 
1.375 901.7 78.715 38.451 22.894 0.37891 -0.22662 
1.4 603.3 66.841 38.322 23.244 0.38398 -0.23101 
1.425 1403.4 70.071 38.218 23.458 0.38698 -0.23453 
1.45 2305.1 61.585 38.111 23.824 0.3923 -0.23816 
1.475 641 69.216 37.953 24.1 0.39604 -0.24351 
1.5 485 63.074 37.948 24.318 0.39939 -0.24368 
1.525 590 75.319 37.79 24.57 0.40271 -0.24901 
1.55 529 64.016 37.661 24.813 0.40596 -0.25339 
1.575 572 65.468 37.594 25.103 0.41015 -0.25564 
1.6 572 74.496 37.559 25.352 0.41381 -0.25683 
1.625 528 72.92 37.423 25.628 0.41748 -0.26142 
1.65 528 66.723 37.33 25.797 0.41968 -0.26456 
1.675 528 79.362 37.161 26.1 0.42357 -0.27022 
1.7 510 70.457 37.086 26.38 0.42748 -0.27275 
1.725 497 67.709 37.003 26.598 0.43039 -0.27555 
1.75 497 77.003 36.858 26.831 0.43326 -0.28039 
1.775 481 69.887 36.788 27.011 0.43563 -0.28276 
1.8 466 70.072 36.637 27.297 0.43919 -0.28779 
1.825 466 76.648 36.532 27.509 0.44185 -0.29131 
1.85 455 71.125 36.442 27.697 0.44421 -0.29431 
1.875 455 77.67 36.327 27.935 0.44716 -0.29814 
1.9 441 70.63 36.236 28.155 0.44995 -0.30118 
1.925 441 77.468 36.108 28.327 0.45183 -0.30542 
1.95 429 69.622 36.009 28.479 0.45354 -0.30873 
1.975 429 76.972 35.915 28.724 0.45663 -0.31183 
2 420 71.089 35.839 28.92 0.45907 -0.31435 
2.025 420 73.589 35.726 29.127 0.46147 -0.31808 
2.05 420 72.814 35.643 29.345 0.46415 -0.32084 
2.075 408 71.492 35.54 29.544 0.46645 -0.32425 
2.1 408 75.386 35.425 29.768 0.46901 -0.32804 
2.125 408 78.592 35.336 29.97 0.47139 -0.33099 
2.15 399 69.494 35.247 30.148 0.4734 -0.33392 
2.175 399 72.279 35.163 30.292 0.47497 -0.33667 
2.2 399 74.47 35.039 30.574 0.47822 -0.34073 
2.225 399 77.03 34.925 30.805 0.48077 -0.34447 
2.25 399 79.537 34.815 31.073 0.48385 -0.34809 
2.275 391 69.454 34.725 31.308 0.48657 -0.35102 
2.3 391 70.754 34.581 31.516 0.48854 -0.35573 
2.325 391 72.305 34.437 31.788 0.49137 -0.36043 
2.35 391 74.11 34.297 31.972 0.49298 -0.36497 
2.375 391 75.013 34.142 32.186 0.49486 -0.37002 
2.4 391 76.464 33.943 32.323 0.49535 -0.37644 
2.425 384 69.431 33.745 32.456 0.49577 -0.38285 
2.45 377 68.732 33.544 32.509 0.49503 -0.38931 
2.475 377 68.354 33.349 32.474 0.49313 -0.39558 
2.5 394 67.629 33.237 32.298 0.48991 -0.39915 
2.525 394 67.69 33.103 32.102 0.48625 -0.40346 
2.55 394 66.55 33.007 31.932 0.48323 -0.40652 
2.575 394 70.51 32.918 31.746 0.48005 -0.40936 
2.6 394 66.14 32.847 31.58 0.47726 -0.41161 
2.625 394 78.908 32.8 31.485 0.47563 -0.4131 
2.65 384 67.892 32.799 31.41 0.4746 -0.41313 
2.675 392 69.279 32.802 31.388 0.47432 -0.41305 
2.7 392 63.504 32.811 31.383 0.47433 -0.41277 
2.725 392 59.739 32.762 31.367 0.47374 -0.4143 
2.75 392 62.72 32.75 31.396 0.47404 -0.4147 
2.775 405 69.277 32.72 31.426 0.47423 -0.41564 
2.8 405 68.279 32.709 31.475 0.4748 -0.416 
2.825 405 67.579 32.687 31.485 0.47478 -0.41671 
2.85 405 64.236 32.648 31.591 0.47591 -0.41793 
2.875 405 62.388 32.601 31.652 0.47637 -0.41941 
2.9 405 60.995 32.6 31.73 0.47741 -0.41947 
2.925 405 59.876 32.567 31.783 0.47788 -0.42048 
2.95 405 59.563 32.516 31.839 0.47823 -0.42212 
2.975 416 68.555 32.473 31.935 0.47919 -0.42347 
3 416 66.453 32.412 31.953 0.47895 -0.4254 
3.025 416 63.729 32.384 32.04 0.47989 -0.42627 
3.05 416 61.096 32.342 32.046 0.47964 -0.42761 
3.075 425 68.101 32.284 32.155 0.48063 -0.42945 
3.1 414 71.067 32.219 32.171 0.48033 -0.43149 
3.125 414 68.645 32.143 32.189 0.47996 -0.43387 
3.15 414 64.773 32.088 32.193 0.47957 -0.43561 
3.175 414 60.711 32.027 32.194 0.47909 -0.43752 
3.2 424 68.694 31.949 32.199 0.47852 -0.43996 
3.225 424 65.53 31.886 32.124 0.47701 -0.44193 
3.25 424 62.585 31.805 32.049 0.47535 -0.44447 
3.275 434 69.364 31.742 31.817 0.47175 -0.44645 
3.3 434 64.162 31.664 31.649 0.46888 -0.44887 
3.325 443 68.075 31.604 31.353 0.46446 -0.45076 
3.35 443 64.383 31.601 31.067 0.46062 -0.45085 
3.375 443 63.996 31.603 30.666 0.45528 -0.45078 
3.4 443 63.718 31.711 30.345 0.45181 -0.44743 
3.425 443 61.997 31.814 30.106 0.4494 -0.44419 
3.45 443 59.956 31.952 29.891 0.44755 -0.43987 
3.475 452 67.259 32.115 29.741 0.44675 -0.43476 
3.5 452 64.577 32.26 29.641 0.44646 -0.43021 
3.525 452 62.124 32.413 29.576 0.4467 -0.42538 
3.55 452 59.758 32.57 29.483 0.44656 -0.42041 
3.575 462 68.044 32.734 29.45 0.44729 -0.4152 
3.6 462 65.924 32.88 29.422 0.44793 -0.41054 
3.625 462 64.551 33.054 29.402 0.44887 -0.40501 
3.65 462 63.271 33.211 29.495 0.45125 -0.4 
3.675 462 62.541 33.449 29.503 0.45298 -0.39236 
3.7 462 61.84 33.633 29.61 0.4557 -0.38646 
3.725 462 60.934 33.836 29.762 0.45919 -0.37989 
3.75 462 60.007 34.066 29.93 0.46305 -0.37248 
3.775 473 69.495 34.276 30.12 0.46705 -0.36566 
3.8 473 66.969 34.507 30.377 0.47214 -0.35814 
3.825 473 63.754 34.738 30.625 0.47708 -0.3506 
3.85 473 59.616 34.913 31 0.48344 -0.34487 
3.875 486 68.096 35.156 31.278 0.48885 -0.33689 
3.9 486 63.5 35.338 31.753 0.49661 -0.33091 
3.925 486 59.59 35.556 32.246 0.50483 -0.32372 
3.95 499 68.446 35.729 32.691 0.51208 -0.31799 
3.975 499 65.025 35.933 33.174 0.52 -0.31125 
4 499 61.903 36.107 33.703 0.52837 -0.30548 
4.025 509 68.561 36.263 34.216 0.53637 -0.30026 
4.05 509 65.449 36.364 34.847 0.54563 -0.2969 
4.075 509 63.003 36.511 35.345 0.55329 -0.29199 
4.1 509 59.84 36.624 36.049 0.56351 -0.28821 
4.125 522 69.173 36.728 36.758 0.57366 -0.28474 
4.15 522 66.816 36.838 37.446 0.5835 -0.28108 
4.175 522 65.181 36.876 38.14 0.59292 -0.2798 
4.2 522 64.057 36.956 38.813 0.60223 -0.27712 
4.225 522 63.198 37.016 39.644 0.61339 -0.27511 
4.25 522 62.061 36.944 40.492 0.62384 -0.27753 
4.275 522 60.46 36.93 41.326 0.63431 -0.27798 
4.3 522 58.898 36.842 42.376 0.64686 -0.28093 
4.325 522 62.984 36.859 43.106 0.65594 -0.28035 
4.35 522 66.414 36.556 43.749 0.66168 -0.2905 
4.375 522 68.932 36.468 44.357 0.66834 -0.29345 
4.4 522 71.428 36.292 44.809 0.67243 -0.29931 
4.425 522 72.61 36.046 45.195 0.67514 -0.30747 
4.45 522 74.218 35.938 45.586 0.67886 -0.31108 
4.475 522 74.23 35.819 45.979 0.68247 -0.31502 
4.5 522 74.799 35.747 46.261 0.68513 -0.31741 
4.525 522 75.277 35.596 46.694 0.68884 -0.3224 
4.55 522 73.326 35.417 47.039 0.69125 -0.32832 
4.575 522 71.772 35.333 47.354 0.69407 -0.33108 
4.6 522 70.513 35.276 47.7 0.69744 -0.33294 
4.625 522 68.888 35.15 47.932 0.6989 -0.3371 
4.65 522 65.941 35.102 48.32 0.70274 -0.33867 
4.675 522 64.105 34.953 48.639 0.70487 -0.34356 
4.7 522 62.646 34.821 49.029 0.70788 -0.34787 
4.725 522 60.042 34.793 49.185 0.7093 -0.3488 
4.75 534 67.631 34.662 49.56 0.71207 -0.35307 
4.775 534 64.957 34.542 49.844 0.71393 -0.357 
4.8 534 61.387 34.49 50.281 0.718 -0.35868 
4.825 545 68.872 34.385 50.543 0.7197 -0.36212 
4.85 545 65.208 34.244 50.774 0.7207 -0.3667 
4.875 545 61.925 34.19 51.262 0.72514 -0.36845 
4.9 557 68.858 33.997 51.634 0.72694 -0.37469 
4.925 557 66.015 33.888 51.769 0.72717 -0.37822 
4.95 557 63.076 33.759 52.091 0.72902 -0.3824 
4.975 568 69.877 33.606 52.26 0.72907 -0.38733 
5 568 66.9 33.609 52.604 0.73248 -0.38721 
5.025 568 63.285 33.482 52.953 0.73449 -0.39131 
5.05 568 59.53 33.397 53.102 0.735 -0.39404 
5.075 582 67.448 33.255 53.273 0.73507 -0.39859 
5.1 582 64.464 33.177 53.557 0.73691 -0.40108 
5.125 582 58.984 33.053 53.807 0.73787 -0.40504 
5.15 599 69.169 32.861 54.137 0.73875 -0.41117 
5.175 599 63.899 32.83 54.387 0.74071 -0.41215 
5.2 599 59.364 32.693 54.646 0.74148 -0.41651 
5.225 618 70.595 32.561 54.898 0.74222 -0.42067 
5.25 618 65.344 32.501 55.029 0.74268 -0.42259 
5.275 618 61.42 32.401 55.389 0.7447 -0.42575 
5.3 631 66.535 32.191 55.729 0.74514 -0.43238 
5.325 631 61.766 32.149 55.893 0.74608 -0.43368 
5.35 631 57.664 31.993 56.017 0.74519 -0.4386 
5.375 649 66.305 31.89 56.163 0.74515 -0.44183 
5.4 649 62.449 31.814 56.389 0.74615 -0.44419 
5.425 649 57.919 31.671 56.556 0.74573 -0.44866 
5.45 669 68.052 31.526 56.802 0.74592 -0.4532 
5.475 669 63.184 31.363 57.004 0.74547 -0.45823 
5.5 684 69.157 31.327 57.141 0.74613 -0.45937 
5.525 684 64.335 31.21 57.344 0.74625 -0.463 
5.55 697 68.959 31.133 57.757 0.74863 -0.46536 
5.575 697 63.013 30.891 57.616 0.74412 -0.47283 
5.6 697 58.258 30.971 57.455 0.7439 -0.47036 
5.625 715 64.594 30.708 57.667 0.74197 -0.47846 
5.65 732 70.836 30.571 57.992 0.74267 -0.48265 
5.675 732 65.043 30.355 58.309 0.74211 -0.48923 
5.7 749 69.694 30.425 58.096 0.74142 -0.4871 
5.725 749 63.684 30.158 58.575 0.74134 -0.49522 
5.75 763 66.483 30.133 58.491 0.7403 -0.49599 
5.775 779 69.912 30.035 59.088 0.74353 -0.49894 
5.8 779 63.692 29.693 58.629 0.7348 -0.50926 
5.825 780 58.259 29.471 59.002 0.73431 -0.51591 
5.85 780 51.858 29.911 57.738 0.73101 -0.50268 
5.875 780 46.692 29.677 58.463 0.73326 -0.50973 
5.9 780 42.336 29.335 59.127 0.73316 -0.51996 
5.925 780 37.883 29.266 59.051 0.7315 -0.52202 
5.95 780 33.538 28.953 59.565 0.73044 -0.53132 
5.975 780 29.882 28.959 58.119 0.71948 -0.53113 
6 780 26.954 28.863 58.299 0.71937 -0.53396 
6.025 780 23.918 28.664 59.116 0.72242 -0.53982 
6.05 780 21.809 28.587 60.083 0.72835 -0.54209 
6.075 780 19.523 28.318 59.52 0.71978 -0.54996 
6.1 780 17.818 28.568 57.458 0.7081 -0.54263 
6.125 780 15.862 28.954 57.659 0.71578 -0.53129 
6.15 780 14.418 29.028 57.794 0.71801 -0.52909 
6.175 780 13.274 28.369 57.979 0.70896 -0.54846 
6.2 780 12.265 27.939 58.19 0.7035 -0.56096 
6.225 780 11.12 28.588 57.35 0.70754 -0.54207 
6.25 780 10.235 28.739 56.666 0.70447 -0.53762 
6.275 780 9.217 28.619 56.347 0.7 -0.54115 
6.3 780 8.496 27.807 58.358 0.70257 -0.56477 
6.325 780 7.675 28.071 57.251 0.69842 -0.55715 
6.35 780 6.974 28.659 57.631 0.7109 -0.53999 
6.375 780 6.271 28.411 56.17 0.69527 -0.54723 
6.4 780 5.567 28.344 57.655 0.70602 -0.54921 
6.425 780 5.001 29.33 55.869 0.70699 -0.52011 
6.45 780 4.484 29.398 54.723 0.69827 -0.51808 
6.475 780 4.011 28.508 57.754 0.70945 -0.54439 
6.5 780 3.584 29.738 58.089 0.73123 -0.50791 

# MINIMA:
0.600 377.0 3.584 27.807 12.517 0.21501 -0.56477

# MAXIMA:
6.500 2305.1 79.577 41.386 60.083 0.74863 -0.12582

# PEAKS:

# END SPECTRUM


# SPECTRUM:
2

# START TIME:
13:38:38

# END TIME:
13:49:01

# THETA ANGLE:
0.00 ø

# INCIDENCE ANGLE:
60.00 ø

# ACCUMULATION NUMBER:
1

# ELLIPSOMETRIC CONFIGURATION:
-45.00 øModulator
+45.00 øAnalyser

# INTEGRATION TIME:
500 ms

# FIRST POINT:
0.6000 eV

# LAST POINT:
6.5000 eV

# INCREMENT:
0.0250 eV

# NUMBER OF POINTS:
237

# DATA:
eV Hv S0 Psi Delta Is Ic
0.6 1397 70.78 40.451 16.019 0.27248 -0.15814 
0.625 1200.2 71.049 40.428 16.416 0.27902 -0.15891 
0.65 1200.2 79.453 40.082 16.81 0.28495 -0.17083 
0.675 1200.2 76.355 40.096 17.303 0.29308 -0.17034 
0.7 1098.6 75.954 39.985 17.746 0.30015 -0.17417 
0.725 997 68.725 39.861 18.266 0.3084 -0.17843 
0.75 997 69.658 39.817 18.72 0.31571 -0.17994 
0.775 895.4 65.253 39.594 19.061 0.32078 -0.18758 
0.8 603.3 63.888 39.576 19.623 0.32983 -0.18821 
0.825 901.7 77.689 39.491 20.049 0.33651 -0.1911 
0.85 901.7 72.987 39.183 20.427 0.34184 -0.20167 
0.875 603.3 63.194 39.191 20.843 0.34852 -0.20138 
0.9 704.9 66.686 39.162 21.408 0.35745 -0.20239 
0.925 806.5 65.758 39.052 21.74 0.36245 -0.20614 
0.95 908.1 76.747 38.893 22.186 0.36906 -0.21156 
0.975 609.6 64.994 38.796 22.678 0.37655 -0.21487 
1 908.1 77.151 38.753 23.066 0.38252 -0.21634 
1.025 806.5 61.8 38.569 23.481 0.38845 -0.22259 
1.05 527.1 61.305 38.452 23.917 0.39486 -0.2266 
1.075 825.5 63.683 38.417 24.39 0.40208 -0.22779 
1.1 825.5 71.04 38.206 24.816 0.40795 -0.23495 
1.125 825.5 71.883 38.126 25.189 0.41341 -0.23766 
1.15 723.9 65.174 37.93 25.661 0.41993 -0.24428 
1.175 723.9 69.875 37.869 26.114 0.4266 -0.24635 
1.2 825.5 73.128 37.771 26.462 0.43149 -0.24967 
1.225 552.5 62.024 37.716 27.006 0.43948 -0.25154 
1.25 387.4 62.999 37.515 27.303 0.44313 -0.2583 
1.275 685.8 78.232 37.381 27.771 0.44955 -0.26284 
1.3 590.6 61.122 37.345 28.172 0.45536 -0.26403 
1.325 787.4 70.975 37.201 28.502 0.45961 -0.26889 
1.35 489 72.257 37.013 28.882 0.46436 -0.2752 
1.375 889 80.915 36.972 29.322 0.47061 -0.27656 
1.4 590.6 66.867 36.777 29.645 0.47439 -0.2831 
1.425 1390.7 73.389 36.744 30.038 0.47993 -0.28421 
1.45 2190.8 61.75 36.551 30.462 0.48508 -0.29067 
1.475 780 0 45 0 0.489478 -0.294375 
1.5 485 67.123 36.343 31.115 0.49334 -0.29762 
1.525 584 74.74 36.19 31.422 0.49688 -0.3027 
1.55 530 70.843 36.121 31.759 0.50127 -0.305 
1.575 565 64.667 36.056 32.19 0.50698 -0.30715 
1.6 565 73.639 35.881 32.533 0.51077 -0.31297 
1.625 520 70.466 35.779 32.805 0.51396 -0.31633 
1.65 520 63.481 35.611 33.12 0.51731 -0.32189 
1.675 520 76.007 35.513 33.495 0.52188 -0.32515 
1.7 504 69.295 35.362 33.791 0.52498 -0.33013 
1.725 493 68.494 35.277 34.119 0.52891 -0.33293 
1.75 493 77.746 35.158 34.407 0.53205 -0.33682 
1.775 477 70.294 35.014 34.702 0.53507 -0.34155 
1.8 463 71.086 34.889 35.058 0.53901 -0.34565 
1.825 463 76.736 34.723 35.379 0.54213 -0.35107 
1.85 451 70.349 34.667 35.658 0.54543 -0.35293 
1.875 451 76.791 34.506 35.923 0.54777 -0.35819 
1.9 437 69.548 34.394 36.237 0.55108 -0.36181 
1.925 437 76.165 34.26 36.494 0.55343 -0.36618 
1.95 426 69.129 34.191 36.73 0.55597 -0.36841 
1.975 426 76.625 34.039 37.005 0.55837 -0.37334 
2 416 69.348 33.948 37.317 0.56168 -0.37628 
2.025 416 72.359 33.838 37.595 0.56435 -0.37985 
2.05 416 71.604 33.715 37.879 0.56697 -0.3838 
2.075 405 70.509 33.616 38.169 0.56984 -0.38699 
2.1 405 75.025 33.494 38.452 0.57238 -0.39091 
2.125 405 78.592 33.369 38.77 0.5753 -0.39492 
2.15 397 70.676 33.288 38.963 0.57699 -0.39754 
2.175 397 73.746 33.154 39.284 0.57981 -0.40181 
2.2 397 76.252 33.029 39.576 0.58229 -0.40581 
2.225 397 78.695 32.914 39.935 0.58563 -0.40946 
2.25 388 68.747 32.818 40.216 0.58817 -0.41253 
2.275 388 70.294 32.673 40.602 0.59148 -0.41715 
2.3 388 71.212 32.522 40.998 0.59477 -0.42194 
2.325 388 73.202 32.364 41.222 0.59591 -0.4269 
2.35 388 74.088 32.197 41.571 0.59837 -0.43218 
2.375 388 75.689 32.022 41.794 0.59922 -0.43769 
2.4 388 77.374 31.776 42.166 0.60102 -0.4454 
2.425 381 70.448 31.561 42.252 0.59976 -0.45209 
2.45 374 70.097 31.331 42.364 0.59858 -0.45925 
2.475 374 69.836 31.084 42.447 0.59683 -0.46689 
2.5 394 68.15 30.932 42.195 0.5923 -0.47156 
2.525 394 68.015 30.767 42.011 0.58836 -0.47663 
2.55 394 67.029 30.623 41.799 0.58432 -0.48106 
2.575 394 70.817 30.534 41.649 0.58162 -0.48378 
2.6 394 66.593 30.444 41.436 0.57818 -0.48651 
2.625 394 79.4 30.383 41.368 0.57671 -0.48839 
2.65 384 68.135 30.395 41.301 0.57608 -0.48802 
2.675 392 69.487 30.349 41.263 0.57513 -0.48941 
2.7 392 63.643 30.346 41.253 0.57498 -0.4895 
2.725 392 60.091 30.319 41.216 0.57426 -0.49032 
2.75 392 62.709 30.307 41.327 0.57539 -0.49068 
2.775 404 68.282 30.265 41.374 0.57545 -0.49198 
2.8 404 67.595 30.245 41.457 0.57617 -0.49258 
2.825 404 67.107 30.219 41.519 0.57658 -0.49337 
2.85 404 63.767 30.184 41.635 0.57749 -0.49444 
2.875 404 62.173 30.136 41.704 0.57772 -0.49587 
2.9 404 60.554 30.12 41.833 0.579 -0.49636 
2.925 404 59.405 30.076 41.93 0.57958 -0.49771 
2.95 404 59.21 30.042 42.02 0.5802 -0.49873 
2.975 415 68.063 29.962 42.182 0.58107 -0.50116 
3 415 66.269 29.899 42.275 0.58138 -0.50305 
3.025 415 63.737 29.857 42.392 0.58218 -0.50433 
3.05 415 60.756 29.813 42.441 0.58221 -0.50565 
3.075 424 68.472 29.739 42.551 0.58254 -0.50788 
3.1 412 70.176 29.662 42.635 0.58254 -0.51019 
3.125 412 68.077 29.591 42.73 0.58273 -0.51232 
3.15 412 64.543 29.502 42.786 0.58227 -0.51497 
3.175 412 60.71 29.451 42.835 0.58218 -0.51651 
3.2 421 67.295 29.347 42.895 0.58156 -0.5196 
3.225 421 64.382 29.271 42.865 0.58029 -0.52188 
3.25 421 61.139 29.154 42.827 0.57842 -0.52535 
3.275 430 67.117 29.021 42.702 0.5754 -0.52929 
3.3 430 62.391 28.918 42.53 0.57224 -0.53234 
3.325 441 68.233 28.816 42.265 0.56807 -0.53534 
3.35 441 64.21 28.766 41.837 0.56275 -0.53684 
3.375 441 63.978 28.739 41.479 0.55848 -0.53762 
3.4 441 63.621 28.771 41.077 0.55443 -0.53668 
3.425 441 62.144 28.852 40.783 0.55214 -0.5343 
3.45 441 60.318 28.945 40.471 0.54978 -0.53154 
3.475 451 68.536 29.034 40.324 0.54919 -0.52891 
3.5 451 65.841 29.178 40.065 0.54796 -0.52465 
3.525 451 63.107 29.294 39.908 0.54753 -0.52119 
3.55 451 60.967 29.439 39.657 0.54634 -0.51686 
3.575 460 68.067 29.542 39.615 0.54703 -0.51377 
3.6 460 66.263 29.702 39.48 0.54729 -0.50897 
3.625 460 65.151 29.861 39.356 0.54764 -0.5042 
3.65 460 63.763 30.026 39.293 0.54873 -0.49921 
3.675 460 62.623 30.249 39.207 0.55016 -0.49245 
3.7 460 61.964 30.446 39.234 0.55261 -0.48645 
3.725 460 61.269 30.659 39.183 0.55428 -0.47995 
3.75 470 70.255 30.876 39.287 0.5578 -0.47328 
3.775 470 68.537 31.122 39.349 0.56108 -0.46571 
3.8 470 65.617 31.353 39.482 0.56504 -0.45856 
3.825 470 62.627 31.59 39.587 0.5687 -0.45118 
3.85 480 69.154 31.825 39.857 0.57429 -0.44386 
3.875 480 64.031 32.101 40.002 0.57874 -0.43521 
3.9 480 59.238 32.356 40.365 0.5856 -0.42716 
3.925 492 66.749 32.62 40.724 0.59245 -0.41881 
3.95 492 63.003 32.894 41.132 0.59993 -0.41012 
3.975 492 59.461 33.174 41.435 0.60618 -0.40119 
4 505 68.853 33.374 41.955 0.61425 -0.39478 
4.025 505 65.449 33.661 42.311 0.62111 -0.38555 
4.05 505 62.569 33.883 42.945 0.63064 -0.37838 
4.075 505 60.21 34.14 43.359 0.63783 -0.37006 
4.1 517 68.297 34.346 44.181 0.64928 -0.3634 
4.125 517 65.11 34.553 44.764 0.65788 -0.35665 
4.15 517 62.751 34.782 45.458 0.66788 -0.34916 
4.175 517 61.418 34.987 46.225 0.67841 -0.34245 
4.2 517 60.52 35.209 47.008 0.68914 -0.33516 
4.225 517 59.904 35.416 47.925 0.70112 -0.32833 
4.25 529 70.056 35.556 48.906 0.71306 -0.32371 
4.275 529 68.627 35.634 50.141 0.72696 -0.32115 
4.3 529 66.289 35.832 51.412 0.74197 -0.31457 
4.325 529 71.121 35.758 52.448 0.7519 -0.31702 
4.35 529 75.835 35.657 53.481 0.7613 -0.32039 
4.375 529 79.515 35.499 54.453 0.7693 -0.32561 
4.4 515 67.706 35.352 55.188 0.77491 -0.33044 
4.425 515 69.606 35.19 55.863 0.77964 -0.33579 
4.45 515 71.627 35.007 56.441 0.78313 -0.34179 
4.475 515 72.576 34.864 57.06 0.78726 -0.34648 
4.5 515 73.73 34.636 57.442 0.78829 -0.35393 
4.525 515 73.405 34.546 58.025 0.79243 -0.35685 
