## SPECTRUM TYPE:
Spectroscopic

## DATE:
1/30/2012

## COMMENTS:

## NUMBER OF SPECTRUM:
5

## ELLIPSOMETRIC CONFIGURATION:
-45.00 øModulator
+45.00 øAnalyser

## UNIT:
eV


# SPECTRUM:
1

# START TIME:
13:26:34

# END TIME:
13:37:55

# THETA ANGLE:
0.00 ø

# INCIDENCE ANGLE:
55.00 ø

# ACCUMULATION NUMBER:
1

# ELLIPSOMETRIC CONFIGURATION:
-45.00 øModulator
+45.00 øAnalyser

# INTEGRATION TIME:
500 ms

# FIRST POINT:
0.6000 eV

# LAST POINT:
6.5000 eV

# INCREMENT:
0.0250 eV

# NUMBER OF POINTS:
237

# DATA:
eV Hv S0 Psi Delta Is Ic 
0.600 1397.0 66.275 41.386 12.517 0.21501 -0.12582 
0.625 1200.2 67.205 41.331 12.806 0.21984 -0.12773 
0.650 1200.2 77.663 41.260 13.188 0.22621 -0.13016 
0.675 1200.2 75.090 41.089 13.580 0.23262 -0.13609 
0.700 1098.6 76.078 41.059 13.914 0.23820 -0.13714 
0.725 997.0 70.154 40.955 14.290 0.24438 -0.14071 
0.750 997.0 71.354 40.942 14.653 0.25043 -0.14117 
0.775 895.4 67.014 40.810 14.937 0.25501 -0.14572 
0.800 596.9 64.049 40.546 15.318 0.26099 -0.15486 
0.825 895.4 79.577 40.620 15.667 0.26690 -0.15228 
0.850 895.4 75.400 40.359 15.969 0.27151 -0.16131 
0.875 596.9 62.858 40.257 16.282 0.27653 -0.16480 
0.900 698.5 66.693 40.385 16.714 0.28387 -0.16041 
0.925 800.1 65.191 40.105 16.988 0.28792 -0.17005 
0.950 901.7 74.991 40.209 17.363 0.29426 -0.16645 
0.975 603.3 64.984 40.084 17.743 0.30027 -0.17076 
1.000 901.7 74.452 39.889 18.002 0.30415 -0.17746 
1.025 901.7 78.083 39.857 18.357 0.30987 -0.17855 
1.050 527.1 60.849 39.690 18.650 0.31432 -0.18428 
1.075 825.5 62.047 39.670 19.092 0.32145 -0.18498 
1.100 825.5 69.358 39.640 19.374 0.32595 -0.18601 
1.125 825.5 70.397 39.545 19.765 0.33205 -0.18928 
1.150 723.9 63.349 39.363 20.053 0.33627 -0.19550 
1.175 723.9 68.017 39.305 20.420 0.34202 -0.19749 
1.200 825.5 70.972 39.204 20.789 0.34768 -0.20095 
1.225 552.5 60.289 39.124 21.107 0.35256 -0.20369 
1.250 387.4 60.707 38.953 21.367 0.35626 -0.20952 
1.275 685.8 75.461 38.855 21.654 0.36054 -0.21287 
1.300 603.3 62.041 38.761 22.027 0.36618 -0.21607 
1.325 800.1 70.298 38.721 22.342 0.37104 -0.21741 
1.350 501.7 73.387 38.498 22.599 0.37442 -0.22502 
1.375 901.7 78.715 38.451 22.894 0.37891 -0.22662 
1.400 603.3 66.841 38.322 23.244 0.38398 -0.23101 
1.425 1403.4 70.071 38.218 23.458 0.38698 -0.23453 
1.450 2305.1 61.585 38.111 23.824 0.39230 -0.23816 
1.475 641.0 69.216 37.953 24.100 0.39604 -0.24351 
1.500 485.0 63.074 37.948 24.318 0.39939 -0.24368 
1.525 590.0 75.319 37.790 24.570 0.40271 -0.24901 
1.550 529.0 64.016 37.661 24.813 0.40596 -0.25339 
1.575 572.0 65.468 37.594 25.103 0.41015 -0.25564 
1.600 572.0 74.496 37.559 25.352 0.41381 -0.25683 
1.625 528.0 72.920 37.423 25.628 0.41748 -0.26142 
1.650 528.0 66.723 37.330 25.797 0.41968 -0.26456 
1.675 528.0 79.362 37.161 26.100 0.42357 -0.27022 
1.700 510.0 70.457 37.086 26.380 0.42748 -0.27275 
1.725 497.0 67.709 37.003 26.598 0.43039 -0.27555 
1.750 497.0 77.003 36.858 26.831 0.43326 -0.28039 
1.775 481.0 69.887 36.788 27.011 0.43563 -0.28276 
1.800 466.0 70.072 36.637 27.297 0.43919 -0.28779 
1.825 466.0 76.648 36.532 27.509 0.44185 -0.29131 
1.850 455.0 71.125 36.442 27.697 0.44421 -0.29431 
1.875 455.0 77.670 36.327 27.935 0.44716 -0.29814 
1.900 441.0 70.630 36.236 28.155 0.44995 -0.30118 
1.925 441.0 77.468 36.108 28.327 0.45183 -0.30542 
1.950 429.0 69.622 36.009 28.479 0.45354 -0.30873 
1.975 429.0 76.972 35.915 28.724 0.45663 -0.31183 
2.000 420.0 71.089 35.839 28.920 0.45907 -0.31435 
2.025 420.0 73.589 35.726 29.127 0.46147 -0.31808 
2.050 420.0 72.814 35.643 29.345 0.46415 -0.32084 
2.075 408.0 71.492 35.540 29.544 0.46645 -0.32425 
2.100 408.0 75.386 35.425 29.768 0.46901 -0.32804 
2.125 408.0 78.592 35.336 29.970 0.47139 -0.33099 
2.150 399.0 69.494 35.247 30.148 0.47340 -0.33392 
2.175 399.0 72.279 35.163 30.292 0.47497 -0.33667 
2.200 399.0 74.470 35.039 30.574 0.47822 -0.34073 
2.225 399.0 77.030 34.925 30.805 0.48077 -0.34447 
2.250 399.0 79.537 34.815 31.073 0.48385 -0.34809 
2.275 391.0 69.454 34.725 31.308 0.48657 -0.35102 
2.300 391.0 70.754 34.581 31.516 0.48854 -0.35573 
2.325 391.0 72.305 34.437 31.788 0.49137 -0.36043 
2.350 391.0 74.110 34.297 31.972 0.49298 -0.36497 
2.375 391.0 75.013 34.142 32.186 0.49486 -0.37002 
2.400 391.0 76.464 33.943 32.323 0.49535 -0.37644 
2.425 384.0 69.431 33.745 32.456 0.49577 -0.38285 
2.450 377.0 68.732 33.544 32.509 0.49503 -0.38931 
2.475 377.0 68.354 33.349 32.474 0.49313 -0.39558 
2.500 394.0 67.629 33.237 32.298 0.48991 -0.39915 
2.525 394.0 67.690 33.103 32.102 0.48625 -0.40346 
2.550 394.0 66.550 33.007 31.932 0.48323 -0.40652 
2.575 394.0 70.510 32.918 31.746 0.48005 -0.40936 
2.600 394.0 66.140 32.847 31.580 0.47726 -0.41161 
2.625 394.0 78.908 32.800 31.485 0.47563 -0.41310 
2.650 384.0 67.892 32.799 31.410 0.47460 -0.41313 
2.675 392.0 69.279 32.802 31.388 0.47432 -0.41305 
2.700 392.0 63.504 32.811 31.383 0.47433 -0.41277 
2.725 392.0 59.739 32.762 31.367 0.47374 -0.41430 
2.750 392.0 62.720 32.750 31.396 0.47404 -0.41470 
2.775 405.0 69.277 32.720 31.426 0.47423 -0.41564 
2.800 405.0 68.279 32.709 31.475 0.47480 -0.41600 
2.825 405.0 67.579 32.687 31.485 0.47478 -0.41671 
2.850 405.0 64.236 32.648 31.591 0.47591 -0.41793 
2.875 405.0 62.388 32.601 31.652 0.47637 -0.41941 
2.900 405.0 60.995 32.600 31.730 0.47741 -0.41947 
2.925 405.0 59.876 32.567 31.783 0.47788 -0.42048 
2.950 405.0 59.563 32.516 31.839 0.47823 -0.42212 
2.975 416.0 68.555 32.473 31.935 0.47919 -0.42347 
3.000 416.0 66.453 32.412 31.953 0.47895 -0.42540 
3.025 416.0 63.729 32.384 32.040 0.47989 -0.42627 
3.050 416.0 61.096 32.342 32.046 0.47964 -0.42761 
3.075 425.0 68.101 32.284 32.155 0.48063 -0.42945 
3.100 414.0 71.067 32.219 32.171 0.48033 -0.43149 
3.125 414.0 68.645 32.143 32.189 0.47996 -0.43387 
3.150 414.0 64.773 32.088 32.193 0.47957 -0.43561 
3.175 414.0 60.711 32.027 32.194 0.47909 -0.43752 
3.200 424.0 68.694 31.949 32.199 0.47852 -0.43996 
3.225 424.0 65.530 31.886 32.124 0.47701 -0.44193 
3.250 424.0 62.585 31.805 32.049 0.47535 -0.44447 
3.275 434.0 69.364 31.742 31.817 0.47175 -0.44645 
3.300 434.0 64.162 31.664 31.649 0.46888 -0.44887 
3.325 443.0 68.075 31.604 31.353 0.46446 -0.45076 
3.350 443.0 64.383 31.601 31.067 0.46062 -0.45085 
3.375 443.0 63.996 31.603 30.666 0.45528 -0.45078 
3.400 443.0 63.718 31.711 30.345 0.45181 -0.44743 
3.425 443.0 61.997 31.814 30.106 0.44940 -0.44419 
3.450 443.0 59.956 31.952 29.891 0.44755 -0.43987 
3.475 452.0 67.259 32.115 29.741 0.44675 -0.43476 
3.500 452.0 64.577 32.260 29.641 0.44646 -0.43021 
3.525 452.0 62.124 32.413 29.576 0.44670 -0.42538 
3.550 452.0 59.758 32.570 29.483 0.44656 -0.42041 
3.575 462.0 68.044 32.734 29.450 0.44729 -0.41520 
3.600 462.0 65.924 32.880 29.422 0.44793 -0.41054 
3.625 462.0 64.551 33.054 29.402 0.44887 -0.40501 
3.650 462.0 63.271 33.211 29.495 0.45125 -0.40000 
3.675 462.0 62.541 33.449 29.503 0.45298 -0.39236 
3.700 462.0 61.840 33.633 29.610 0.45570 -0.38646 
3.725 462.0 60.934 33.836 29.762 0.45919 -0.37989 
3.750 462.0 60.007 34.066 29.930 0.46305 -0.37248 
3.775 473.0 69.495 34.276 30.120 0.46705 -0.36566 
3.800 473.0 66.969 34.507 30.377 0.47214 -0.35814 
3.825 473.0 63.754 34.738 30.625 0.47708 -0.35060 
3.850 473.0 59.616 34.913 31.000 0.48344 -0.34487 
3.875 486.0 68.096 35.156 31.278 0.48885 -0.33689 
3.900 486.0 63.500 35.338 31.753 0.49661 -0.33091 
3.925 486.0 59.590 35.556 32.246 0.50483 -0.32372 
3.950 499.0 68.446 35.729 32.691 0.51208 -0.31799 
3.975 499.0 65.025 35.933 33.174 0.52000 -0.31125 
4.000 499.0 61.903 36.107 33.703 0.52837 -0.30548 
4.025 509.0 68.561 36.263 34.216 0.53637 -0.30026 
4.050 509.0 65.449 36.364 34.847 0.54563 -0.29690 
4.075 509.0 63.003 36.511 35.345 0.55329 -0.29199 
4.100 509.0 59.840 36.624 36.049 0.56351 -0.28821 
4.125 522.0 69.173 36.728 36.758 0.57366 -0.28474 
4.150 522.0 66.816 36.838 37.446 0.58350 -0.28108 
4.175 522.0 65.181 36.876 38.140 0.59292 -0.27980 
4.200 522.0 64.057 36.956 38.813 0.60223 -0.27712 
4.225 522.0 63.198 37.016 39.644 0.61339 -0.27511 
4.250 522.0 62.061 36.944 40.492 0.62384 -0.27753 
4.275 522.0 60.460 36.930 41.326 0.63431 -0.27798 
4.300 522.0 58.898 36.842 42.376 0.64686 -0.28093 
4.325 522.0 62.984 36.859 43.106 0.65594 -0.28035 
4.350 522.0 66.414 36.556 43.749 0.66168 -0.29050 
4.375 522.0 68.932 36.468 44.357 0.66834 -0.29345 
4.400 522.0 71.428 36.292 44.809 0.67243 -0.29931 
4.425 522.0 72.610 36.046 45.195 0.67514 -0.30747 
4.450 522.0 74.218 35.938 45.586 0.67886 -0.31108 
4.475 522.0 74.230 35.819 45.979 0.68247 -0.31502 
4.500 522.0 74.799 35.747 46.261 0.68513 -0.31741 
4.525 522.0 75.277 35.596 46.694 0.68884 -0.32240 
4.550 522.0 73.326 35.417 47.039 0.69125 -0.32832 
4.575 522.0 71.772 35.333 47.354 0.69407 -0.33108 
4.600 522.0 70.513 35.276 47.700 0.69744 -0.33294 
4.625 522.0 68.888 35.150 47.932 0.69890 -0.33710 
4.650 522.0 65.941 35.102 48.320 0.70274 -0.33867 
4.675 522.0 64.105 34.953 48.639 0.70487 -0.34356 
4.700 522.0 62.646 34.821 49.029 0.70788 -0.34787 
4.725 522.0 60.042 34.793 49.185 0.70930 -0.34880 
4.750 534.0 67.631 34.662 49.560 0.71207 -0.35307 
4.775 534.0 64.957 34.542 49.844 0.71393 -0.35700 
4.800 534.0 61.387 34.490 50.281 0.71800 -0.35868 
4.825 545.0 68.872 34.385 50.543 0.71970 -0.36212 
4.850 545.0 65.208 34.244 50.774 0.72070 -0.36670 
4.875 545.0 61.925 34.190 51.262 0.72514 -0.36845 
4.900 557.0 68.858 33.997 51.634 0.72694 -0.37469 
4.925 557.0 66.015 33.888 51.769 0.72717 -0.37822 
4.950 557.0 63.076 33.759 52.091 0.72902 -0.38240 
4.975 568.0 69.877 33.606 52.260 0.72907 -0.38733 
5.000 568.0 66.900 33.609 52.604 0.73248 -0.38721 
5.025 568.0 63.285 33.482 52.953 0.73449 -0.39131 
5.050 568.0 59.530 33.397 53.102 0.73500 -0.39404 
5.075 582.0 67.448 33.255 53.273 0.73507 -0.39859 
5.100 582.0 64.464 33.177 53.557 0.73691 -0.40108 
5.125 582.0 58.984 33.053 53.807 0.73787 -0.40504 
5.150 599.0 69.169 32.861 54.137 0.73875 -0.41117 
5.175 599.0 63.899 32.830 54.387 0.74071 -0.41215 
5.200 599.0 59.364 32.693 54.646 0.74148 -0.41651 
5.225 618.0 70.595 32.561 54.898 0.74222 -0.42067 
5.250 618.0 65.344 32.501 55.029 0.74268 -0.42259 
5.275 618.0 61.420 32.401 55.389 0.74470 -0.42575 
5.300 631.0 66.535 32.191 55.729 0.74514 -0.43238 
5.325 631.0 61.766 32.149 55.893 0.74608 -0.43368 
5.350 631.0 57.664 31.993 56.017 0.74519 -0.43860 
5.375 649.0 66.305 31.890 56.163 0.74515 -0.44183 
5.400 649.0 62.449 31.814 56.389 0.74615 -0.44419 
5.425 649.0 57.919 31.671 56.556 0.74573 -0.44866 
5.450 669.0 68.052 31.526 56.802 0.74592 -0.45320 
5.475 669.0 63.184 31.363 57.004 0.74547 -0.45823 
5.500 684.0 69.157 31.327 57.141 0.74613 -0.45937 
5.525 684.0 64.335 31.210 57.344 0.74625 -0.46300 
5.550 697.0 68.959 31.133 57.757 0.74863 -0.46536 
5.575 697.0 63.013 30.891 57.616 0.74412 -0.47283 
5.600 697.0 58.258 30.971 57.455 0.74390 -0.47036 
5.625 715.0 64.594 30.708 57.667 0.74197 -0.47846 
5.650 732.0 70.836 30.571 57.992 0.74267 -0.48265 
5.675 732.0 65.043 30.355 58.309 0.74211 -0.48923 
5.700 749.0 69.694 30.425 58.096 0.74142 -0.48710 
5.725 749.0 63.684 30.158 58.575 0.74134 -0.49522 
5.750 763.0 66.483 30.133 58.491 0.74030 -0.49599 
5.775 779.0 69.912 30.035 59.088 0.74353 -0.49894 
5.800 779.0 63.692 29.693 58.629 0.73480 -0.50926 
5.825 780.0 58.259 29.471 59.002 0.73431 -0.51591 
5.850 780.0 51.858 29.911 57.738 0.73101 -0.50268 
5.875 780.0 46.692 29.677 58.463 0.73326 -0.50973 
5.900 780.0 42.336 29.335 59.127 0.73316 -0.51996 
5.925 780.0 37.883 29.266 59.051 0.73150 -0.52202 
5.950 780.0 33.538 28.953 59.565 0.73044 -0.53132 
5.975 780.0 29.882 28.959 58.119 0.71948 -0.53113 
6.000 780.0 26.954 28.863 58.299 0.71937 -0.53396 
6.025 780.0 23.918 28.664 59.116 0.72242 -0.53982 
6.050 780.0 21.809 28.587 60.083 0.72835 -0.54209 
6.075 780.0 19.523 28.318 59.520 0.71978 -0.54996 
6.100 780.0 17.818 28.568 57.458 0.70810 -0.54263 
6.125 780.0 15.862 28.954 57.659 0.71578 -0.53129 
6.150 780.0 14.418 29.028 57.794 0.71801 -0.52909 
6.175 780.0 13.274 28.369 57.979 0.70896 -0.54846 
6.200 780.0 12.265 27.939 58.190 0.70350 -0.56096 
6.225 780.0 11.120 28.588 57.350 0.70754 -0.54207 
6.250 780.0 10.235 28.739 56.666 0.70447 -0.53762 
6.275 780.0 9.217 28.619 56.347 0.70000 -0.54115 
6.300 780.0 8.496 27.807 58.358 0.70257 -0.56477 
6.325 780.0 7.675 28.071 57.251 0.69842 -0.55715 
6.350 780.0 6.974 28.659 57.631 0.71090 -0.53999 
6.375 780.0 6.271 28.411 56.170 0.69527 -0.54723 
6.400 780.0 5.567 28.344 57.655 0.70602 -0.54921 
6.425 780.0 5.001 29.330 55.869 0.70699 -0.52011 
6.450 780.0 4.484 29.398 54.723 0.69827 -0.51808 
6.475 780.0 4.011 28.508 57.754 0.70945 -0.54439 
6.500 780.0 3.584 29.738 58.089 0.73123 -0.50791 

# MINIMA:
0.600 377.0 3.584 27.807 12.517 0.21501 -0.56477 

# MAXIMA:
6.500 2305.1 79.577 41.386 60.083 0.74863 -0.12582 

# PEAKS:

# END SPECTRUM


# SPECTRUM:
2

# START TIME:
13:38:38

# END TIME:
13:49:01

# THETA ANGLE:
0.00 ø

# INCIDENCE ANGLE:
60.00 ø

# ACCUMULATION NUMBER:
1

# ELLIPSOMETRIC CONFIGURATION:
-45.00 øModulator
+45.00 øAnalyser

# INTEGRATION TIME:
500 ms

# FIRST POINT:
0.6000 eV

# LAST POINT:
6.5000 eV

# INCREMENT:
0.0250 eV

# NUMBER OF POINTS:
237

# DATA:
eV Hv S0 Psi Delta Is Ic 
0.600 1397.0 70.780 40.451 16.019 0.27248 -0.15814 
0.625 1200.2 71.049 40.428 16.416 0.27902 -0.15891 
0.650 1200.2 79.453 40.082 16.810 0.28495 -0.17083 
0.675 1200.2 76.355 40.096 17.303 0.29308 -0.17034 
0.700 1098.6 75.954 39.985 17.746 0.30015 -0.17417 
0.725 997.0 68.725 39.861 18.266 0.30840 -0.17843 
0.750 997.0 69.658 39.817 18.720 0.31571 -0.17994 
0.775 895.4 65.253 39.594 19.061 0.32078 -0.18758 
0.800 603.3 63.888 39.576 19.623 0.32983 -0.18821 
0.825 901.7 77.689 39.491 20.049 0.33651 -0.19110 
0.850 901.7 72.987 39.183 20.427 0.34184 -0.20167 
0.875 603.3 63.194 39.191 20.843 0.34852 -0.20138 
0.900 704.9 66.686 39.162 21.408 0.35745 -0.20239 
0.925 806.5 65.758 39.052 21.740 0.36245 -0.20614 
0.950 908.1 76.747 38.893 22.186 0.36906 -0.21156 
0.975 609.6 64.994 38.796 22.678 0.37655 -0.21487 
1.000 908.1 77.151 38.753 23.066 0.38252 -0.21634 
1.025 806.5 61.800 38.569 23.481 0.38845 -0.22259 
1.050 527.1 61.305 38.452 23.917 0.39486 -0.22660 
1.075 825.5 63.683 38.417 24.390 0.40208 -0.22779 
1.100 825.5 71.040 38.206 24.816 0.40795 -0.23495 
1.125 825.5 71.883 38.126 25.189 0.41341 -0.23766 
1.150 723.9 65.174 37.930 25.661 0.41993 -0.24428 
1.175 723.9 69.875 37.869 26.114 0.42660 -0.24635 
1.200 825.5 73.128 37.771 26.462 0.43149 -0.24967 
1.225 552.5 62.024 37.716 27.006 0.43948 -0.25154 
1.250 387.4 62.999 37.515 27.303 0.44313 -0.25830 
1.275 685.8 78.232 37.381 27.771 0.44955 -0.26284 
1.300 590.6 61.122 37.345 28.172 0.45536 -0.26403 
1.325 787.4 70.975 37.201 28.502 0.45961 -0.26889 
1.350 489.0 72.257 37.013 28.882 0.46436 -0.27520 
1.375 889.0 80.915 36.972 29.322 0.47061 -0.27656 
1.400 590.6 66.867 36.777 29.645 0.47439 -0.28310 
1.425 1390.7 73.389 36.744 30.038 0.47993 -0.28421 
1.450 2190.8 61.750 36.551 30.462 0.48508 -0.29067 
1.475 780.0 0.000 45.000 0.000 0.00000 0.00000 
1.500 485.0 67.123 36.343 31.115 0.49334 -0.29762 
1.525 584.0 74.740 36.190 31.422 0.49688 -0.30270 
1.550 530.0 70.843 36.121 31.759 0.50127 -0.30500 
1.575 565.0 64.667 36.056 32.190 0.50698 -0.30715 
1.600 565.0 73.639 35.881 32.533 0.51077 -0.31297 
1.625 520.0 70.466 35.779 32.805 0.51396 -0.31633 
1.650 520.0 63.481 35.611 33.120 0.51731 -0.32189 
1.675 520.0 76.007 35.513 33.495 0.52188 -0.32515 
1.700 504.0 69.295 35.362 33.791 0.52498 -0.33013 
1.725 493.0 68.494 35.277 34.119 0.52891 -0.33293 
1.750 493.0 77.746 35.158 34.407 0.53205 -0.33682 
1.775 477.0 70.294 35.014 34.702 0.53507 -0.34155 
1.800 463.0 71.086 34.889 35.058 0.53901 -0.34565 
1.825 463.0 76.736 34.723 35.379 0.54213 -0.35107 
1.850 451.0 70.349 34.667 35.658 0.54543 -0.35293 
1.875 451.0 76.791 34.506 35.923 0.54777 -0.35819 
1.900 437.0 69.548 34.394 36.237 0.55108 -0.36181 
1.925 437.0 76.165 34.260 36.494 0.55343 -0.36618 
1.950 426.0 69.129 34.191 36.730 0.55597 -0.36841 
1.975 426.0 76.625 34.039 37.005 0.55837 -0.37334 
2.000 416.0 69.348 33.948 37.317 0.56168 -0.37628 
2.025 416.0 72.359 33.838 37.595 0.56435 -0.37985 
2.050 416.0 71.604 33.715 37.879 0.56697 -0.38380 
2.075 405.0 70.509 33.616 38.169 0.56984 -0.38699 
2.100 405.0 75.025 33.494 38.452 0.57238 -0.39091 
2.125 405.0 78.592 33.369 38.770 0.57530 -0.39492 
2.150 397.0 70.676 33.288 38.963 0.57699 -0.39754 
2.175 397.0 73.746 33.154 39.284 0.57981 -0.40181 
2.200 397.0 76.252 33.029 39.576 0.58229 -0.40581 
2.225 397.0 78.695 32.914 39.935 0.58563 -0.40946 
2.250 388.0 68.747 32.818 40.216 0.58817 -0.41253 
2.275 388.0 70.294 32.673 40.602 0.59148 -0.41715 
2.300 388.0 71.212 32.522 40.998 0.59477 -0.42194 
2.325 388.0 73.202 32.364 41.222 0.59591 -0.42690 
2.350 388.0 74.088 32.197 41.571 0.59837 -0.43218 
2.375 388.0 75.689 32.022 41.794 0.59922 -0.43769 
2.400 388.0 77.374 31.776 42.166 0.60102 -0.44540 
2.425 381.0 70.448 31.561 42.252 0.59976 -0.45209 
2.450 374.0 70.097 31.331 42.364 0.59858 -0.45925 
2.475 374.0 69.836 31.084 42.447 0.59683 -0.46689 
2.500 394.0 68.150 30.932 42.195 0.59230 -0.47156 
2.525 394.0 68.015 30.767 42.011 0.58836 -0.47663 
2.550 394.0 67.029 30.623 41.799 0.58432 -0.48106 
2.575 394.0 70.817 30.534 41.649 0.58162 -0.48378 
2.600 394.0 66.593 30.444 41.436 0.57818 -0.48651 
2.625 394.0 79.400 30.383 41.368 0.57671 -0.48839 
2.650 384.0 68.135 30.395 41.301 0.57608 -0.48802 
2.675 392.0 69.487 30.349 41.263 0.57513 -0.48941 
2.700 392.0 63.643 30.346 41.253 0.57498 -0.48950 
2.725 392.0 60.091 30.319 41.216 0.57426 -0.49032 
2.750 392.0 62.709 30.307 41.327 0.57539 -0.49068 
2.775 404.0 68.282 30.265 41.374 0.57545 -0.49198 
2.800 404.0 67.595 30.245 41.457 0.57617 -0.49258 
2.825 404.0 67.107 30.219 41.519 0.57658 -0.49337 
2.850 404.0 63.767 30.184 41.635 0.57749 -0.49444 
2.875 404.0 62.173 30.136 41.704 0.57772 -0.49587 
2.900 404.0 60.554 30.120 41.833 0.57900 -0.49636 
2.925 404.0 59.405 30.076 41.930 0.57958 -0.49771 
2.950 404.0 59.210 30.042 42.020 0.58020 -0.49873 
2.975 415.0 68.063 29.962 42.182 0.58107 -0.50116 
3.000 415.0 66.269 29.899 42.275 0.58138 -0.50305 
3.025 415.0 63.737 29.857 42.392 0.58218 -0.50433 
3.050 415.0 60.756 29.813 42.441 0.58221 -0.50565 
3.075 424.0 68.472 29.739 42.551 0.58254 -0.50788 
3.100 412.0 70.176 29.662 42.635 0.58254 -0.51019 
3.125 412.0 68.077 29.591 42.730 0.58273 -0.51232 
3.150 412.0 64.543 29.502 42.786 0.58227 -0.51497 
3.175 412.0 60.710 29.451 42.835 0.58218 -0.51651 
3.200 421.0 67.295 29.347 42.895 0.58156 -0.51960 
3.225 421.0 64.382 29.271 42.865 0.58029 -0.52188 
3.250 421.0 61.139 29.154 42.827 0.57842 -0.52535 
3.275 430.0 67.117 29.021 42.702 0.57540 -0.52929 
3.300 430.0 62.391 28.918 42.530 0.57224 -0.53234 
3.325 441.0 68.233 28.816 42.265 0.56807 -0.53534 
3.350 441.0 64.210 28.766 41.837 0.56275 -0.53684 
3.375 441.0 63.978 28.739 41.479 0.55848 -0.53762 
3.400 441.0 63.621 28.771 41.077 0.55443 -0.53668 
3.425 441.0 62.144 28.852 40.783 0.55214 -0.53430 
3.450 441.0 60.318 28.945 40.471 0.54978 -0.53154 
3.475 451.0 68.536 29.034 40.324 0.54919 -0.52891 
3.500 451.0 65.841 29.178 40.065 0.54796 -0.52465 
3.525 451.0 63.107 29.294 39.908 0.54753 -0.52119 
3.550 451.0 60.967 29.439 39.657 0.54634 -0.51686 
3.575 460.0 68.067 29.542 39.615 0.54703 -0.51377 
3.600 460.0 66.263 29.702 39.480 0.54729 -0.50897 
3.625 460.0 65.151 29.861 39.356 0.54764 -0.50420 
3.650 460.0 63.763 30.026 39.293 0.54873 -0.49921 
3.675 460.0 62.623 30.249 39.207 0.55016 -0.49245 
3.700 460.0 61.964 30.446 39.234 0.55261 -0.48645 
