## SPECTRUM TYPE:
Spectroscopic

## DATE:
1/30/2012

## COMMENTS:

## NUMBER OF SPECTRUM:
5

## ELLIPSOMETRIC CONFIGURATION:
+45.00 øModulator
-45.00 øAnalyser

## UNIT:
eV


# SPECTRUM:
1

# START TIME:
16:15:46

# END TIME:
16:27:08

# THETA ANGLE:
0.00 ø

# INCIDENCE ANGLE:
55.00 ø

# ACCUMULATION NUMBER:
1

# ELLIPSOMETRIC CONFIGURATION:
+45.00 øModulator
-45.00 øAnalyser

# INTEGRATION TIME:
500 ms

# FIRST POINT:
0.6000 eV

# LAST POINT:
6.5000 eV

# INCREMENT:
0.0250 eV

# NUMBER OF POINTS:
237

# DATA:
eV Hv S0 Psi Delta Is Ic
0.6 1301.8 60.26 41.595 12.429 -0.21372 0.11857 
0.625 1200.2 72.323 41.444 12.815 -0.2201 0.12381 
0.65 1098.6 68.023 41.291 13.19 -0.22627 0.1291 
0.675 1098.6 67.072 41.192 13.524 -0.23179 0.13252 
0.7 997 65.823 41.077 13.894 -0.23788 0.13653 
0.725 997 77.582 41.237 14.145 -0.24226 0.13098 
0.75 895.4 63.894 40.806 14.638 -0.25001 0.14589 
0.775 895.4 76.999 40.595 14.887 -0.25388 0.15315 
0.8 596.9 75.135 40.684 15.278 -0.26053 0.15007 
0.825 793.8 72.207 40.334 15.742 -0.26771 0.16216 
0.85 793.8 68.879 40.439 15.975 -0.27175 0.15852 
0.875 596.9 77.81 40.275 16.297 -0.27681 0.1642 
0.9 698.5 82.808 40.36 16.684 -0.28334 0.16127 
0.925 800.1 81.31 40.198 17.071 -0.28944 0.16682 
0.95 800.1 71.994 40.336 17.251 -0.29264 0.1621 
0.975 527.1 61.556 39.971 17.829 -0.30148 0.17465 
1 825.5 76.868 39.923 18.069 -0.3053 0.1763 
1.025 730.3 61.518 39.862 18.432 -0.3111 0.1784 
1.05 533.4 79.171 39.718 18.752 -0.31602 0.18334 
1.075 831.9 81.108 39.691 19.055 -0.32088 0.18426 
1.1 730.3 66.458 39.584 19.434 -0.32679 0.18792 
1.125 730.3 66.491 39.472 19.837 -0.33305 0.19175 
1.15 647.7 60.627 39.29 20.167 -0.33793 0.19801 
1.175 647.7 64.915 39.395 20.436 -0.3425 0.1944 
1.2 749.3 68.959 39.158 20.844 -0.34846 0.20251 
1.225 552.5 72.682 39.099 21.06 -0.35175 0.20455 
1.25 362 60.66 38.976 21.445 -0.35755 0.20874 
1.275 660.4 80.988 38.866 21.759 -0.36223 0.21248 
1.3 565.2 61.699 38.808 22.097 -0.36742 0.21446 
1.325 762 72.744 38.631 22.289 -0.36994 0.22049 
1.35 463.6 70.444 38.606 22.582 -0.37447 0.22135 
1.375 863.6 82.046 38.499 22.904 -0.3792 0.22499 
1.4 565.2 65.203 38.376 23.27 -0.38455 0.22915 
1.425 1263.7 62.541 38.355 23.495 -0.38799 0.22989 
1.45 2165.4 64.043 38.091 23.868 -0.39293 0.23882 
1.475 620 79.636 38.113 24.028 -0.39547 0.23809 
1.5 466 70.061 37.957 24.374 -0.40028 0.24338 
1.525 556 72.414 37.81 24.567 -0.40273 0.24836 
1.55 506 71.267 37.78 24.784 -0.40595 0.24938 
1.575 542 66.796 37.606 25.129 -0.41059 0.25526 
1.6 542 76.532 37.559 25.391 -0.41441 0.25683 
1.625 497 71.833 37.461 25.592 -0.41708 0.26012 
1.65 497 66.281 37.298 25.862 -0.42053 0.26563 
1.675 488 70.081 37.211 26.179 -0.42498 0.26856 
1.7 478 68.815 37.024 26.418 -0.42778 0.27484 
1.725 469 69.994 36.982 26.654 -0.43114 0.27624 
1.75 460 68.852 36.84 26.915 -0.43443 0.28101 
1.775 452 70.148 36.767 27.124 -0.43721 0.28346 
1.8 438 70.557 36.654 27.369 -0.44034 0.28722 
1.825 438 76.036 36.535 27.56 -0.44263 0.2912 
1.85 427 69.724 36.446 27.785 -0.44553 0.29416 
1.875 427 75.613 36.347 28.002 -0.44825 0.29748 
1.9 416 70.606 36.236 28.24 -0.4512 0.30116 
1.925 416 76.374 36.141 28.364 -0.45254 0.30435 
1.95 406 69.944 36.029 28.647 -0.4561 0.30805 
1.975 406 76.129 35.936 28.786 -0.45764 0.31114 
2 397 68.982 35.843 29.033 -0.46073 0.31421 
2.025 397 70.998 35.738 29.261 -0.46346 0.31771 
2.05 397 69.299 35.643 29.442 -0.46555 0.32085 
2.075 388 69.837 35.56 29.669 -0.46836 0.32358 
2.1 388 73.243 35.466 29.809 -0.46984 0.32668 
2.125 388 75.112 35.358 30.024 -0.47228 0.33026 
2.15 388 77.177 35.26 30.241 -0.47481 0.33348 
2.175 381 69.464 35.158 30.472 -0.47748 0.33683 
2.2 381 70.465 35.055 30.696 -0.48003 0.34023 
2.225 381 72.147 34.974 30.913 -0.4826 0.34288 
2.25 381 73.633 34.862 31.163 -0.48542 0.34653 
2.275 381 74.415 34.743 31.403 -0.48801 0.35042 
2.3 381 74.554 34.604 31.694 -0.49117 0.35498 
2.325 381 75.576 34.472 31.853 -0.4925 0.35928 
2.35 381 76.017 34.302 32.119 -0.49503 0.3648 
2.375 381 76.314 34.161 32.287 -0.49638 0.3694 
2.4 381 76.958 33.972 32.497 -0.49793 0.37552 
2.425 381 79.236 33.765 32.626 -0.49822 0.38218 
2.45 368 69.834 33.582 32.671 -0.4975 0.38811 
2.475 368 68.894 33.385 32.677 -0.49614 0.39441 
2.5 361 69.978 33.25 32.273 -0.48967 0.39873 
2.525 361 69.955 33.056 32.159 -0.48668 0.40494 
2.55 361 68.514 32.972 31.94 -0.48308 0.40762 
2.575 361 72.096 32.953 31.673 -0.47932 0.40823 
2.6 361 66.99 32.809 31.671 -0.47822 0.4128 
2.625 355 70.708 32.798 31.522 -0.47612 0.41317 
2.65 355 72.901 32.79 31.444 -0.47499 0.41343 
2.675 355 63.349 32.836 31.39 -0.47461 0.41195 
2.7 363 67.205 32.808 31.391 -0.47442 0.41284 
2.725 363 62.722 32.78 31.415 -0.47453 0.41374 
2.75 363 64.762 32.795 31.429 -0.47482 0.41327 
2.775 373 68.639 32.682 31.525 -0.47528 0.41684 
2.8 373 66.965 32.726 31.529 -0.47566 0.41545 
2.825 373 65.763 32.676 31.595 -0.47618 0.41705 
2.85 373 62.141 32.65 31.68 -0.47712 0.41787 
2.875 373 59.957 32.593 31.813 -0.47849 0.41966 
2.9 381 68.421 32.575 31.817 -0.4784 0.42024 
2.925 381 66.428 32.579 31.893 -0.47945 0.42012 
2.95 381 65.471 32.538 31.961 -0.48004 0.42141 
2.975 381 61.386 32.459 32.067 -0.48085 0.42392 
3 389 69.034 32.406 32.13 -0.48127 0.42558 
3.025 389 65.689 32.386 32.165 -0.48158 0.42622 
3.05 389 62.243 32.302 32.27 -0.48232 0.42889 
3.075 389 59.52 32.289 32.245 -0.48188 0.42928 
3.1 389 74.808 32.182 32.302 -0.48177 0.43266 
3.125 389 71.811 32.113 32.394 -0.48244 0.43482 
3.15 389 67.171 32.053 32.439 -0.48255 0.43672 
3.175 389 62.447 32.02 32.393 -0.48166 0.43776 
3.2 397 68.779 31.91 32.359 -0.48032 0.44118 
3.225 397 65.044 31.9 32.274 -0.4791 0.44151 
3.25 397 61.408 31.805 32.222 -0.47763 0.44448 
3.275 407 68.639 31.692 32.128 -0.47546 0.448 
3.3 407 62.628 31.625 31.891 -0.47177 0.4501 
3.325 418 68.575 31.624 31.581 -0.46765 0.45012 
3.35 418 63.869 31.57 31.233 -0.46258 0.45183 
3.375 418 63.198 31.576 30.969 -0.4591 0.45163 
3.4 418 61.955 31.679 30.558 -0.45443 0.4484 
3.425 418 59.927 31.824 30.307 -0.45219 0.44387 
3.45 427 67.335 31.952 30.123 -0.45069 0.43988 
3.475 427 63.78 32.119 29.969 -0.44988 0.43464 
3.5 427 60.75 32.245 29.864 -0.44939 0.43068 
3.525 438 69.004 32.422 29.809 -0.44996 0.42507 
3.55 438 65.876 32.541 29.771 -0.45031 0.42131 
3.575 438 62.734 32.709 29.727 -0.45092 0.416 
3.6 438 60.254 32.907 29.651 -0.4513 0.40969 
3.625 449 69.799 33.072 29.671 -0.45272 0.40445 
3.65 449 67.621 33.255 29.688 -0.45423 0.39859 
3.675 449 65.805 33.443 29.762 -0.45655 0.39258 
3.7 449 64.031 33.637 29.865 -0.45929 0.38634 
3.725 449 62.367 33.858 29.993 -0.46257 0.3792 
3.75 449 60.451 34.116 30.201 -0.46717 0.37085 
3.775 459 68.432 34.32 30.379 -0.47099 0.36422 
3.8 459 65.277 34.551 30.584 -0.47533 0.35672 
3.825 459 61.388 34.775 30.869 -0.48074 0.3494 
3.85 471 68.983 34.952 31.211 -0.48664 0.3436 
3.875 471 63.22 35.168 31.608 -0.49354 0.3365 
3.9 482 68.91 35.388 32.022 -0.50068 0.32926 
3.925 482 63.756 35.597 32.497 -0.50858 0.32236 
3.95 492 69.384 35.795 32.904 -0.51543 0.31582 
3.975 492 65.03 35.97 33.425 -0.52371 0.31 
4 492 61.34 36.138 33.856 -0.53066 0.30443 
4.025 502 67.143 36.235 34.549 -0.54077 0.30122 
4.05 502 64.007 36.438 35.053 -0.54887 0.29444 
4.075 502 60.925 36.589 35.682 -0.55833 0.28941 
4.1 514 68.551 36.673 36.314 -0.56737 0.28659 
4.125 514 65.251 36.77 36.962 -0.57664 0.28335 
4.15 514 62.231 36.839 37.614 -0.58574 0.28102 
4.175 514 60.418 36.962 38.312 -0.5957 0.27692 
4.2 514 59.045 36.975 39.127 -0.60644 0.27647 
4.225 525 68.386 37.019 39.915 -0.61691 0.27499 
4.25 525 66.817 36.99 40.862 -0.62884 0.27597 
4.275 525 64.716 36.902 41.595 -0.63751 0.27891 
4.3 511 71.104 36.805 42.466 -0.64772 0.28216 
4.325 511 75.619 36.844 42.892 -0.65322 0.28085 
4.35 502 70.452 36.482 43.836 -0.6622 0.29299 
4.375 502 73.87 36.437 44.156 -0.66572 0.29449 
4.4 502 76.669 36.349 44.515 -0.66937 0.29739 
4.425 502 79.215 35.966 45.134 -0.67381 0.31014 
4.45 492 68.99 35.809 45.552 -0.67747 0.31535 
4.475 492 70.118 35.819 45.72 -0.67948 0.31502 
4.5 492 70.824 35.646 46.087 -0.68233 0.32074 
4.525 492 70.281 35.579 46.418 -0.68557 0.32297 
4.55 492 69.93 35.517 46.723 -0.68852 0.32501 
4.575 492 69.125 35.288 47.204 -0.692 0.33257 
4.6 492 67.16 35.197 47.569 -0.6953 0.33554 
4.625 492 65.936 35.212 47.587 -0.69563 0.33505 
4.65 492 64.248 35.006 48.142 -0.69994 0.34181 
4.675 492 62.062 34.883 48.548 -0.70326 0.34585 
4.7 502 69.052 34.808 48.817 -0.70548 0.34833 
4.725 502 67.027 34.679 49.062 -0.70692 0.35253 
4.75 502 64.777 34.673 49.226 -0.70862 0.35272 
4.775 502 61.979 34.555 49.589 -0.71137 0.35656 
4.8 502 59.839 34.437 49.978 -0.71434 0.36041 
4.825 515 69.005 34.393 50.235 -0.71659 0.36185 
4.85 515 65.667 34.132 50.654 -0.71834 0.37033 
4.875 515 62.845 34.235 50.669 -0.71953 0.36699 
4.9 515 59.839 33.949 51.366 -0.72375 0.37625 
4.925 529 70.377 33.891 51.591 -0.72541 0.37814 
4.95 529 67.103 33.827 51.693 -0.72577 0.3802 
4.975 529 64.748 33.72 51.961 -0.72732 0.38365 
5 529 61.44 33.69 51.946 -0.72685 0.38463 
5.025 529 57.612 33.55 52.404 -0.72989 0.38912 
5.05 546 69.47 33.298 52.841 -0.73139 0.39722 
5.075 546 65.356 33.215 52.97 -0.73172 0.39986 
5.1 546 61.12 33.201 53.005 -0.7319 0.40031 
5.125 559 69.219 32.97 53.744 -0.73633 0.40768 
5.15 559 64.627 32.924 53.751 -0.73585 0.40917 
5.175 570 69.333 32.868 53.939 -0.73697 0.41094 
5.2 570 64.523 32.725 54.217 -0.7379 0.4155 
5.225 570 59.184 32.485 54.749 -0.73994 0.42308 
5.25 588 70.566 32.436 54.945 -0.74112 0.42466 
5.275 588 65.315 32.316 55.221 -0.74216 0.42842 
5.3 601 71.052 32.095 55.574 -0.74258 0.43538 
5.325 601 66.496 32.19 55.441 -0.74257 0.43239 
5.35 601 61.568 31.997 55.703 -0.74248 0.43845 
5.375 613 66.749 32.01 55.64 -0.74209 0.43804 
5.4 613 62.759 31.749 56.282 -0.74437 0.44623 
5.425 625 67.171 31.727 56.133 -0.7428 0.44692 
5.45 625 62.471 31.757 56.228 -0.744 0.44599 
5.475 639 68.363 31.544 56.339 -0.74219 0.45261 
5.5 639 62.758 31.246 56.961 -0.74352 0.46189 
5.525 639 58.727 31.295 56.595 -0.74108 0.46037 
5.55 657 66.069 31.168 57.077 -0.74345 0.46428 
5.575 657 60.946 31.079 56.828 -0.74014 0.46703 
5.6 671 65.093 30.944 56.963 -0.73942 0.4712 
5.625 671 59.378 30.633 57.737 -0.74148 0.48074 
5.65 690 66.557 30.639 57.452 -0.73922 0.48057 
5.675 690 60.406 30.462 57.465 -0.73681 0.48598 
5.7 714 70.577 30.287 57.434 -0.73404 0.49131 
5.725 714 63.449 30.225 57.667 -0.73505 0.49318 
5.75 731 68.875 30.013 57.901 -0.73383 0.49962 
5.775 731 61.317 30.125 57.791 -0.73458 0.49623 
5.8 752 68.117 29.809 58.235 -0.73346 0.50576 
5.825 752 61.281 29.84 58.027 -0.73227 0.50482 
5.85 771 65.357 29.977 57.356 -0.72889 0.50069 
5.875 780 63.853 29.728 57.563 -0.72687 0.5082 
5.9 780 56.389 29.642 57.383 -0.72413 0.51078 
5.925 780 50.316 29.659 57.77 -0.72749 0.51028 
5.95 780 44.608 29.282 57.039 -0.71589 0.52154 
5.975 780 39.264 29.485 57.327 -0.7213 0.51549 
6 780 34.966 29.583 56.343 -0.71472 0.51256 
6.025 780 30.57 29.497 55.465 -0.70607 0.51514 
6.05 780 27.561 28.981 56.153 -0.70403 0.53048 
6.075 780 24.711 29.216 56.405 -0.7097 0.52352 
6.1 780 22.147 28.872 56.078 -0.70174 0.53371 
6.125 780 19.659 28.799 56.354 -0.70288 0.53585 
6.15 780 17.794 28.797 54.907 -0.69081 0.5359 
6.175 780 16.094 29.094 54.497 -0.6918 0.52713 
6.2 780 14.425 29.225 55.214 -0.69989 0.52325 
6.225 780 12.964 28.876 54.98 -0.69263 0.53358 
6.25 780 12.016 28.838 53.957 -0.68327 0.53472 
6.275 780 10.753 28.771 53.727 -0.68027 0.53667 
6.3 780 9.817 29.329 52.656 -0.679 0.52014 
6.325 780 8.68 29.832 51.25 -0.67311 0.50507 
6.35 780 7.848 28.802 51.514 -0.66094 0.53577 
6.375 780 6.879 29.83 51.416 -0.67463 0.50514 
6.4 780 6.164 30.188 49.697 -0.66295 0.4943 
6.425 780 5.52 29.532 50.152 -0.65853 0.51407 
6.45 780 4.954 30.724 49.131 -0.66424 0.47796 
6.475 780 4.401 30.117 48.547 -0.65062 0.49646 
6.5 780 3.916 30.658 46.402 -0.63533 0.47996 

# MINIMA:
0.600 355.0 3.916 28.771 12.429 -0.74437 0.11857

# MAXIMA:
6.500 2165.4 82.808 41.595 58.235 -0.21372 0.53667

# PEAKS:

# END SPECTRUM


# SPECTRUM:
2

# START TIME:
16:27:51

# END TIME:
16:38:13

# THETA ANGLE:
0.00 ø

# INCIDENCE ANGLE:
60.00 ø

# ACCUMULATION NUMBER:
1

# ELLIPSOMETRIC CONFIGURATION:
+45.00 øModulator
-45.00 øAnalyser

# INTEGRATION TIME:
500 ms

# FIRST POINT:
0.6000 eV

# LAST POINT:
6.5000 eV

# INCREMENT:
0.0250 eV

# NUMBER OF POINTS:
237

# DATA:
eV Hv S0 Psi Delta Is Ic
0.6 1200.2 62.343 40.228 16.2 -0.27513 0.1658 
0.625 1098.6 71.322 40.2 16.55 -0.28087 0.16678 
0.65 997 65.194 40.074 17.039 -0.28871 0.17109 
0.675 997 63.31 39.832 17.516 -0.29609 0.1794 
0.7 997 78.592 40.025 17.616 -0.29809 0.1728 
0.725 895.4 71.859 40.062 18.175 -0.3073 0.17153 
0.75 895.4 74.391 39.805 18.61 -0.31389 0.18034 
0.775 793.8 68.586 39.656 19.135 -0.32211 0.18546 
0.8 596.9 85.449 39.486 19.654 -0.33013 0.1913 
0.825 793.8 82.306 39.454 20.073 -0.3368 0.1924 
0.85 793.8 78.882 39.15 20.501 -0.34295 0.20277 
0.875 508 60.546 38.982 20.914 -0.34912 0.20854 
0.9 609.6 68.307 38.989 21.364 -0.3563 0.2083 
0.925 711.2 69.287 38.9 21.845 -0.3637 0.21134 
0.95 711.2 61.082 38.976 22.148 -0.3687 0.20873 
0.975 514.4 62.663 38.744 22.812 -0.37849 0.21665 
1 812.8 82.148 38.687 23.101 -0.38286 0.2186 
1.025 711.2 63.431 38.607 23.468 -0.38835 0.22132 
1.05 514.4 78.623 38.611 23.844 -0.39424 0.22117 
1.075 812.8 82.578 38.248 24.393 -0.40158 0.23352 
1.1 711.2 67.065 38.136 24.847 -0.40819 0.23733 
1.125 711.2 66.805 38.054 25.306 -0.41495 0.24008 
1.15 628.7 61.793 38.078 25.626 -0.41993 0.23928 
1.175 628.7 65.741 37.886 26.051 -0.4257 0.24577 
1.2 730.3 70.689 37.685 26.663 -0.43419 0.25258 
1.225 533.4 70.396 37.635 26.995 -0.43899 0.25425 
1.25 349.3 60.647 37.389 27.414 -0.44427 0.26257 
1.275 647.7 81.658 37.344 27.749 -0.44907 0.26407 
1.3 552.5 62.874 37.362 28.163 -0.45531 0.26348 
1.325 749.3 73.929 37.179 28.548 -0.4602 0.26964 
1.35 450.9 70.9 36.997 28.926 -0.46494 0.27572 
1.375 825.5 78.599 36.916 29.271 -0.46961 0.27846 
1.4 527.1 60.867 36.781 29.754 -0.476 0.28297 
1.425 1225.6 63.784 36.766 30.03 -0.47993 0.28349 
1.45 1924.1 62.687 36.581 30.475 -0.48542 0.28968 
1.475 780 0 45 0 -0.489592 0.293165 
1.5 453 56.803 36.389 31.097 -0.49333 0.29608 
1.525 564 80.563 36.254 31.442 -0.49752 0.30056 
1.55 506 70.666 36.134 31.679 -0.50021 0.30457 
1.575 541 66.343 35.957 32.151 -0.50586 0.31043 
1.6 541 76.45 35.781 32.515 -0.50992 0.31629 
1.625 496 71.993 35.725 32.803 -0.51361 0.31815 
1.65 496 65.864 35.599 33.174 -0.51798 0.32231 
1.675 486 68.15 35.394 33.54 -0.52174 0.32907 
1.7 477 68.818 35.354 33.872 -0.52605 0.3304 
1.725 467 69.519 35.221 34.113 -0.52847 0.33478 
1.75 459 70.139 35.081 34.458 -0.53222 0.33937 
1.775 450 69.521 34.943 34.763 -0.53541 0.34388 
1.8 437 71.019 34.829 35.098 -0.53912 0.34761 
1.825 437 77.122 34.683 35.378 -0.54183 0.35239 
1.85 425 69.48 34.597 35.659 -0.54494 0.35522 
1.875 425 75.354 34.463 35.953 -0.54785 0.35956 
1.9 414 70.175 34.344 36.238 -0.55071 0.36345 
1.925 414 76.478 34.245 36.507 -0.55348 0.36668 
1.95 404 70.095 34.127 36.845 -0.55698 0.3705 
1.975 404 76.332 33.991 37.038 -0.55842 0.37488 
2 395 69.902 33.889 37.376 -0.56195 0.37821 
2.025 395 71.939 33.797 37.644 -0.56464 0.38116 
2.05 395 70.678 33.685 37.94 -0.5675 0.38477 
2.075 385 69.893 33.569 38.152 -0.56922 0.38853 
2.1 385 73.295 33.487 38.427 -0.572 0.39114 
2.125 385 75.608 33.362 38.745 -0.57492 0.39515 
2.15 385 77.414 33.27 39.022 -0.57757 0.39812 
2.175 378 69.048 33.138 39.3 -0.57986 0.40233 
2.2 378 70.521 33.049 39.595 -0.58269 0.40519 
2.225 378 72.184 32.934 39.904 -0.58544 0.40883 
2.25 378 73.517 32.807 40.207 -0.58795 0.41287 
2.275 378 74.507 32.686 40.581 -0.59135 0.41673 
2.3 378 74.859 32.534 40.898 -0.59371 0.42153 
2.325 378 75.565 32.363 41.265 -0.59641 0.42696 
2.35 378 76.154 32.189 41.588 -0.59849 0.43243 
2.375 378 76.638 32.006 41.914 -0.60047 0.43818 
2.4 378 77.339 31.783 42.194 -0.60142 0.44518 
2.425 370 68.228 31.558 42.359 -0.60095 0.45218 
2.45 370 77.795 31.331 42.52 -0.60036 0.45923 
2.475 370 76.292 31.078 42.49 -0.59726 0.46706 
2.5 357 71.431 30.816 42.249 -0.59161 0.47513 
2.525 357 71.226 30.64 42.042 -0.58728 0.48054 
2.55 357 69.924 30.532 41.798 -0.5833 0.48383 
2.575 357 73.517 30.466 41.535 -0.57956 0.48585 
2.6 357 68.213 30.359 41.504 -0.578 0.4891 
2.625 350 69.862 30.338 41.355 -0.57606 0.48973 
2.65 350 72.207 30.29 41.295 -0.57483 0.49121 
2.675 350 63.044 30.375 41.136 -0.57397 0.48861 
2.7 359 68.668 30.334 41.136 -0.5735 0.48987 
2.725 359 63.673 30.275 41.279 -0.57448 0.49166 
2.75 359 65.839 30.238 41.336 -0.57471 0.4928 
2.775 368 68.874 30.194 41.392 -0.57485 0.49412 
2.8 368 67.21 30.18 41.467 -0.57555 0.49454 
2.825 368 65.96 30.186 41.522 -0.57623 0.49437 
2.85 368 61.94 30.135 41.666 -0.57728 0.49592 
2.875 376 70.065 30.071 41.798 -0.57804 0.49786 
2.9 376 68.144 30.071 41.842 -0.57853 0.49786 
2.925 376 66.226 30.036 41.966 -0.57951 0.49892 
2.95 376 65.416 29.993 42.097 -0.58049 0.50022 
2.975 376 61.696 29.958 42.195 -0.58118 0.50126 
3 376 59.231 29.939 42.217 -0.5812 0.50184 
3.025 386 68.14 29.796 42.48 -0.58244 0.50616 
3.05 386 64.368 29.74 42.591 -0.583 0.50782 
3.075 386 61.028 29.74 42.593 -0.58301 0.50785 
3.1 386 77.145 29.555 42.788 -0.58293 0.5134 
3.125 386 73.861 29.5 42.871 -0.58317 0.51503 
3.15 386 69.307 29.462 42.948 -0.58355 0.51617 
3.175 386 64.798 29.396 42.979 -0.58308 0.51814 
3.2 386 61.061 29.333 42.946 -0.58195 0.52002 
3.225 396 69.631 29.234 42.904 -0.58025 0.52299 
3.25 396 65.148 29.117 42.933 -0.57912 0.52644 
3.275 396 61.109 28.92 42.959 -0.57691 0.53229 
3.3 407 68.179 28.883 42.665 -0.57326 0.53337 
3.325 407 61.689 28.846 42.256 -0.56834 0.53447 
3.35 417 68.419 28.686 42.12 -0.56484 0.53919 
3.375 417 67.37 28.707 41.682 -0.56031 0.53857 
3.4 417 66.285 28.707 41.366 -0.55684 0.53856 
3.425 417 64.227 28.8 40.961 -0.5535 0.53583 
3.45 417 61.569 28.852 40.729 -0.55154 0.53428 
3.475 426 68.263 29.068 40.397 -0.55043 0.52789 
3.5 426 64.429 29.184 40.205 -0.54963 0.52445 
3.525 426 61.064 29.306 40.057 -0.54937 0.52082 
3.55 436 69.013 29.413 39.927 -0.54913 0.51765 
3.575 436 65.487 29.496 39.82 -0.54887 0.51515 
3.6 436 62.976 29.68 39.661 -0.54913 0.50964 
3.625 445 70.346 29.876 39.527 -0.5498 0.50374 
3.65 445 68.026 30.019 39.479 -0.55083 0.49943 
3.675 445 66.071 30.207 39.4 -0.55198 0.49372 
3.7 445 64.15 30.432 39.393 -0.55434 0.48687 
3.725 445 62.631 30.646 39.397 -0.55667 0.48036 
3.75 445 60.807 30.849 39.464 -0.55961 0.47413 
3.775 445 58.07 31.127 39.46 -0.56247 0.46556 
3.8 458 68.723 31.365 39.61 -0.5667 0.45818 
3.825 458 64.344 31.602 39.736 -0.5706 0.45081 
3.85 458 59.83 31.846 39.908 -0.57511 0.4432 
3.875 472 68.156 32.084 40.186 -0.58079 0.43574 
3.9 472 62.822 32.38 40.412 -0.58638 0.42641 
3.925 484 69.666 32.657 40.779 -0.59345 0.41765 
3.95 484 64.947 32.924 41.121 -0.60008 0.40915 
3.975 484 60.748 33.166 41.546 -0.60743 0.40143 
4 496 68.404 33.424 41.986 -0.61508 0.39316 
4.025 496 64.29 33.64 42.451 -0.62258 0.38622 
4.05 496 60.699 33.857 43.008 -0.63116 0.37922 
4.075 508 68.701 34.111 43.502 -0.63925 0.37101 
4.1 508 64.676 34.285 44.166 -0.64857 0.36536 
4.125 508 61.249 34.563 44.846 -0.65892 0.35632 
4.15 519 68.577 34.799 45.561 -0.66921 0.3486 
4.175 519 66.321 34.97 46.375 -0.67995 0.34301 
4.2 519 65.194 35.204 47.065 -0.68974 0.33533 
4.225 519 64.008 35.382 48.193 -0.70378 0.32946 
4.25 519 63.001 35.507 49.04 -0.71409 0.32532 
4.275 519 61.21 35.601 50.111 -0.72636 0.32224 
4.3 506 69.444 35.624 51.285 -0.73885 0.32148 
4.325 506 74.846 35.827 51.87 -0.74662 0.31476 
4.35 497 69.612 35.695 52.986 -0.75674 0.31912 
4.375 497 73.684 35.343 54.082 -0.76428 0.33076 
4.4 497 77.313 35.272 54.814 -0.77062 0.33307 
4.425 497 80.194 35.122 55.348 -0.7742 0.33802 
4.45 486 69.484 35.07 55.69 -0.77688 0.33972 
4.475 486 71.124 34.78 56.604 -0.78232 0.34922 
4.5 486 72.244 34.603 56.972 -0.7838 0.355 
4.525 486 73.509 34.334 57.81 -0.78831 0.36377 
